StartTime: 2017-07-07 14:56:27.700
Time(s)	ax(g)	ay(g)	az(g)	wx(deg/s)	wy(deg/s)	wz(deg/s)	AngleX(deg)	AngleY(deg)	AngleZ(deg)	T(°)	hx	hy	hz	Pressure(Pa)	Altitude(m) 
273.915	-1.1216	-0.0889	1.8730	-0.4883	-1.5869	0.9155	-2.3291	29.9487	-128.6444	43.1300	-269	-104	228	100646	0.57 
274.008	-1.1191	-0.0884	1.8701	-0.3052	-0.1221	1.0376	-2.3511	29.9432	-128.6389	43.1400	-269	-107	227	100646	0.57 
274.087	-1.1201	-0.0874	1.8730	-0.0610	0.0000	0.8545	-2.3236	29.9323	-128.5730	43.1300	-271	-106	229	100646	0.57 
274.227	-1.1152	-0.0840	1.8696	0.0000	0.0000	0.9766	-2.2687	29.9432	-128.5291	43.1500	-268	-105	225	100646	0.57 
274.305	-1.1187	-0.0854	1.8716	-0.2441	0.5493	1.0986	-2.2247	30.0146	-128.5126	43.1400	-269	-103	230	100646	0.57 
274.430	-1.1167	-0.0859	1.8706	-0.3662	0.7935	0.9155	-2.2247	30.1245	-128.4576	43.1500	-267	-103	229	100646	0.57 
274.602	-1.1406	-0.0830	1.8804	-0.6104	-1.4038	0.8545	-2.2302	30.1740	-128.4631	43.1400	-269	-103	227	100645	0.57 
274.633	-1.1357	-0.0869	1.8711	-0.4883	-4.3335	0.3662	-2.2302	29.9268	-128.4796	43.1600	-269	-104	231	100645	0.57 
274.743	-1.1338	-0.0903	1.8867	-0.2441	-9.8267	-0.7935	-2.2577	29.3115	-128.5840	43.1600	-268	-103	230	100645	0.57 
274.868	-1.1113	-0.0811	1.8740	0.1221	-20.3857	-2.0752	-2.3291	27.9053	-128.7378	43.1600	-271	-104	230	100645	0.57 
274.946	-1.1064	-0.0874	1.8901	1.2207	-32.2266	-0.7324	-2.3291	25.5322	-128.8422	43.1700	-277	-102	239	100645	0.57 
275.134	-1.0112	-0.0825	1.8779	2.5635	-44.4336	-2.9907	-2.1094	22.0331	-128.6554	43.1400	-283	-105	246	100645	0.57 
275.212	-0.9092	-0.0645	1.8540	2.6245	-57.4951	-3.1128	-1.9336	17.2925	-128.6664	43.1700	-292	-110	262	100646	0.57 
275.274	-0.8706	-0.1040	1.8140	1.3428	-50.9033	-4.2114	-1.7194	11.8872	-128.0237	43.1600	-295	-108	278	100645	0.57 
275.353	-0.6753	-0.0210	1.8379	-0.7324	-65.0024	-4.5166	-1.8842	6.5918	-127.8149	43.1700	-299	-108	299	100646	0.57 
275.477	-0.5493	-0.0596	1.7842	1.4038	-65.9180	-3.9673	-1.8787	0.9393	-127.6831	43.1900	-304	-113	319	100646	0.57 
275.602	-0.4473	-0.0718	1.6855	0.1221	-63.4155	-2.8076	-1.9446	-4.2957	-127.3096	43.1600	-301	-116	342	100646	0.57 
275.681	-0.3237	-0.0254	1.6230	-0.1221	-62.4390	-3.4790	-2.1259	-9.3219	-126.6779	43.1900	-298	-118	361	100646	0.57 
275.837	-0.2510	-0.0410	1.5190	3.1738	-60.7910	-3.2349	-2.0435	-14.0735	-126.0901	43.1800	-286	-119	382	100646	0.57 
275.899	-0.1812	-0.0576	1.4531	1.3428	-59.4482	-2.4414	-2.0105	-18.5449	-125.5518	43.1900	-281	-121	404	100645	0.57 
276.009	-0.1001	-0.0352	1.3677	4.1504	-48.1567	-7.1411	-1.7029	-22.4780	-125.2551	43.1800	-271	-124	423	100646	0.57 
276.102	-0.0635	0.0088	1.2949	4.2725	-43.7622	-5.3101	-1.0602	-25.3729	-125.4584	43.1800	-256	-130	438	100645	0.57 
276.227	0.0332	0.0415	1.2334	0.0000	-36.8042	-3.7231	-0.6757	-27.6251	-125.6232	43.1800	-245	-131	453	100646	0.57 
276.306	-0.0728	0.0337	1.1904	-1.0376	-28.8696	-0.1831	-0.5438	-29.3060	-125.7220	43.2000	-232	-134	463	100646	0.57 
276.446	0.0498	0.0049	1.1201	0.6104	-10.0708	1.3428	-0.6866	-29.7345	-125.2332	43.1800	-229	-137	476	100646	0.57 
276.509	-0.0083	0.0020	1.1362	1.4038	-3.1738	-1.5259	-0.5438	-28.5809	-125.1178	43.1900	-226	-138	475	100647	0.57 
276.634	-0.0547	0.0469	1.1357	1.6479	1.2207	1.0986	-0.1868	-27.5043	-125.1563	43.1900	-223	-139	480	100646	0.57 
276.712	-0.0859	0.0303	1.1812	-0.1221	5.7373	0.0000	-0.1373	-25.6915	-125.0958	43.1700	-220	-137	478	100646	0.57 
276.837	-0.0430	0.0229	1.1826	-1.2817	1.8921	1.2817	-0.2252	-23.6481	-125.0244	43.1600	-223	-139	476	100647	0.57 
276.931	-0.0601	0.0044	1.1592	-0.0610	-3.8452	-1.0376	-0.2032	-22.1045	-125.0848	43.1500	-223	-139	473	100647	0.57 
277.056	-0.0391	0.0234	1.1484	-0.4272	-1.8921	-1.8921	-0.1263	-20.9564	-125.2551	43.1700	-222	-137	473	100646	0.57 
277.165	-0.0361	0.0361	1.1582	-0.7324	0.1221	-0.1221	-0.0330	-19.7369	-125.3979	43.1500	-225	-136	477	100646	0.57 
277.274	-0.0337	0.0166	1.1577	-0.4883	2.6855	0.3662	-0.0714	-18.3856	-125.2936	43.1500	-226	-134	478	100647	0.57 
277.368	-0.0337	0.0254	1.1621	-0.9155	-0.7935	1.8311	-0.0879	-17.0837	-125.1947	43.1500	-221	-134	476	100646	0.57 
277.462	-0.0322	0.0220	1.1587	-0.5493	-0.7935	1.1597	-0.1208	-16.0071	-125.0739	43.1500	-222	-138	476	100646	0.57 
277.556	-0.0303	0.0181	1.1606	-0.4883	-0.3662	1.2207	-0.1263	-15.0018	-124.9915	43.1500	-222	-138	475	100645	0.57 
277.681	-0.0488	0.0195	1.1738	-0.5493	0.4883	1.9531	-0.1483	-13.9856	-124.8431	43.1500	-225	-140	474	100646	0.57 
277.821	-0.0503	0.0400	1.1807	-0.3662	-0.1221	1.2817	-0.1208	-13.0353	-124.8267	43.1400	-227	-139	473	100646	0.57 
277.869	-0.0239	-0.0059	1.1631	-0.7324	0.4883	4.0894	-0.1978	-12.1893	-124.5520	43.1500	-227	-137	474	100645	0.57 
278.024	-0.0435	0.0195	1.1870	-1.0986	-6.4697	5.0049	-0.2692	-11.4752	-124.2554	43.1500	-222	-139	471	100645	0.57 
278.118	-0.0757	0.0127	1.1396	-0.4272	-13.4888	7.4463	-0.3406	-11.6180	-123.8324	43.1500	-220	-136	477	100645	0.57 
278.181	-0.0068	-0.0210	1.1064	-0.1831	-14.2212	1.5259	-0.4614	-11.8433	-123.4259	43.1400	-221	-134	479	100645	0.57 
278.321	-0.0298	0.0464	1.1279	-1.5869	-20.8130	-1.8921	-0.3735	-12.5739	-123.7775	43.1300	-217	-137	486	100645	0.57 
278.384	0.0225	0.0132	1.0400	-0.0610	-7.0190	-5.0659	-0.4889	-13.4308	-123.7555	43.1300	-206	-138	486	100645	0.57 
278.509	-0.0078	0.0215	1.0586	-0.9766	20.3857	-9.2163	-0.3076	-12.2113	-124.4531	43.1100	-208	-137	490	100646	0.57 
278.618	0.0249	0.0776	1.1001	-1.8311	34.3018	-1.4648	-0.0604	-8.9594	-125.2112	43.1500	-214	-141	482	100646	0.57 
278.712	-0.0430	0.0581	1.1958	-1.3428	49.4385	6.1646	-0.2032	-4.4495	-125.0299	43.1300	-224	-139	472	100646	0.57 
278.822	-0.0649	-0.0068	1.2422	-1.5259	58.1665	5.4321	-0.2362	1.0052	-124.2444	43.1400	-241	-137	462	100647	0.57 
278.946	-0.0977	0.0083	1.3564	-0.6104	67.9321	7.5684	-0.2527	7.3828	-123.6182	43.1600	-255	-131	444	100647	0.57 
279.056	-0.1611	-0.0161	1.4751	-1.4648	63.2324	8.7891	-0.1703	13.5242	-122.7777	43.1300	-272	-127	420	100647	0.57 
279.134	-0.3057	-0.0010	1.5874	-1.6479	63.7817	1.0986	-0.1978	19.6106	-122.4207	43.1400	-284	-125	398	100647	0.57 
279.290	-0.3633	-0.0103	1.6675	-4.3335	70.5566	-4.8218	-0.6042	25.5981	-122.6898	43.1400	-292	-125	378	100647	0.57 
279.353	-0.4912	-0.0103	1.7251	-1.5869	63.8428	-1.3428	-0.9888	31.4594	-123.1512	43.1300	-299	-124	354	100647	0.57 
279.431	-0.5664	0.0015	1.7827	-5.0049	60.1196	-4.0283	-1.6205	36.6669	-123.8159	43.1500	-302	-123	329	100647	0.57 
279.571	-0.7036	-0.0415	1.8530	-2.6245	55.6030	-3.8452	-2.2467	41.2042	-124.3817	43.1400	-304	-125	310	100647	0.57 
279.696	-0.8135	-0.0142	1.8584	-6.1646	46.7529	-6.2256	-3.1696	44.9835	-125.5188	43.1400	-299	-124	292	100646	0.57 
279.760	-0.8936	-0.0166	1.8623	-6.9580	40.9546	-7.5073	-5.1526	47.9059	-127.4908	43.1300	-298	-129	278	100646	0.57 
279.869	-0.9746	-0.0435	1.8813	-5.0659	29.2358	-3.1128	-6.2512	49.9274	-128.7598	43.1200	-292	-130	268	100647	0.57 
279.993	-1.0259	-0.0591	1.9058	-2.3193	12.9395	2.1973	-6.4600	50.7294	-129.0729	43.1100	-293	-131	258	100647	0.57 
280.072	-1.0146	-0.0601	1.8896	-3.3569	7.3242	1.7700	-6.1688	50.3229	-128.9575	43.1000	-287	-129	249	100647	0.57 
280.197	-0.9966	-0.0532	1.8833	-1.8311	0.9155	0.6104	-6.1194	49.3945	-129.1718	43.1000	-285	-127	249	100647	0.57 
280.322	-0.9946	-0.0576	1.8872	-0.3052	1.2207	-0.3662	-6.0699	48.3344	-129.4574	43.1100	-285	-130	250	100646	0.57 
280.400	-1.0000	-0.0420	1.8823	-0.5493	-2.4414	-0.7935	-5.9381	47.0380	-129.6991	43.1100	-285	-129	249	100646	0.57 
280.525	-0.9868	-0.0488	1.8818	0.0000	-3.3569	0.5493	-5.6305	45.6152	-129.6991	43.0900	-286	-128	246	100646	0.57 
280.635	-0.9795	-0.0522	1.8813	0.0000	-5.4321	1.5259	-5.2515	44.1595	-129.5728	43.0800	-287	-128	249	100646	0.57 
280.759	-0.9888	-0.0469	1.8745	0.4272	-8.0566	2.7466	-4.7351	42.6050	-129.2651	43.0900	-287	-128	250	100646	0.57 
280.838	-0.9771	-0.0400	1.8853	0.9766	-13.0615	2.5024	-4.1583	40.6879	-128.9520	43.0700	-289	-132	251	100646	0.57 
280.962	-0.9590	-0.0430	1.8794	1.4648	-21.2402	2.6855	-3.6200	38.2599	-128.6884	43.0900	-290	-130	255	100646	0.57 
281.072	-0.9204	-0.0400	1.8838	0.9155	-27.8931	-0.0610	-3.1805	35.1508	-128.4082	43.0800	-294	-128	260	100646	0.57 
281.166	-0.8506	-0.0435	1.8833	-0.2441	-40.8325	4.6387	-2.6917	31.2341	-127.8973	43.0800	-295	-125	274	100646	0.57 
281.275	-0.7427	-0.0469	1.8198	0.0610	-51.0864	1.0376	-2.2906	26.2628	-127.1558	43.1100	-299	-126	285	100646	0.57 
281.369	-0.6548	-0.0444	1.8291	-0.7324	-53.8940	3.9673	-2.2357	20.9674	-126.8646	43.1000	-305	-124	304	100646	0.57 
281.478	-0.5654	-0.0356	1.7900	1.7700	-68.1152	3.6011	-1.9885	14.9634	-125.9088	43.1000	-304	-122	319	100646	0.57 
281.603	-0.4624	-0.0293	1.6943	5.1270	-71.4722	5.0049	-1.5436	8.4375	-125.0793	43.1200	-301	-123	342	100646	0.57 
281.728	-0.3877	-0.0269	1.6367	4.4556	-77.3926	7.3242	-1.0876	1.6589	-124.1785	43.1100	-294	-123	369	100646	0.57 
281.806	-0.2290	-0.0479	1.4814	2.1973	-78.8574	3.4180	-0.8789	-5.2350	-123.1018	43.1300	-286	-123	394	100645	0.57 
281.900	-0.0962	-0.0229	1.3809	4.5776	-66.7725	2.1362	-0.7855	-11.5576	-122.3163	43.1100	-271	-127	423	100646	0.57 
282.025	-0.1436	-0.0493	1.2339	2.8687	-55.2368	-6.9580	-0.4614	-16.5015	-122.1954	43.1200	-255	-128	443	100645	0.57 
282.103	0.1499	0.0332	1.1563	2.8687	-34.6680	-12.3901	0.0494	-19.9017	-122.9535	43.1400	-244	-134	457	100646	0.57 
282.213	-0.0918	0.0439	1.1611	-0.1221	-21.6675	-8.4229	0.5878	-21.5881	-123.7555	43.1400	-234	-138	470	100645	0.57 
282.307	-0.2959	0.0176	1.2861	-1.5259	0.9766	3.9673	0.4779	-21.9836	-123.4424	43.1400	-226	-140	469	100646	0.57 
282.447	-0.0620	0.0835	1.1655	-0.9766	-11.2915	3.1128	0.3186	-21.9727	-123.2666	43.1400	-220	-139	477	100646	0.57 
282.510	-0.0635	-0.0313	1.1387	1.0376	-6.0425	0.6104	0.0385	-21.1102	-122.7338	43.1300	-218	-140	478	100646	0.57 
282.635	-0.0093	-0.0234	1.1353	0.1831	-0.3052	3.7231	-0.0220	-19.5667	-122.4152	43.1200	-217	-139	480	100646	0.57 
282.775	-0.0659	-0.0171	1.1626	2.3804	1.6479	-5.4932	0.0330	-17.8363	-122.4811	43.1100	-222	-136	478	100647	0.57 
282.838	-0.0532	0.0269	1.1748	1.8311	7.4463	-5.1880	0.4834	-16.2323	-123.1567	43.1100	-223	-136	477	100647	0.57 
282.994	-0.0229	0.0527	1.1479	-0.6714	-0.3052	-5.2490	0.7471	-15.0458	-123.8818	43.1300	-222	-138	478	100646	0.57 
283.088	-0.0283	0.0273	1.1611	0.4883	1.3428	-0.5493	0.8240	-14.0405	-124.1565	43.1100	-223	-139	475	100646	0.57 
283.150	-0.0278	0.0039	1.1577	1.0986	-1.0376	-0.3662	0.9009	-13.0463	-124.1400	43.1200	-226	-137	478	100646	0.57 
283.275	-0.0405	0.0347	1.1631	0.1221	-2.8687	0.8545	0.9833	-12.2937	-124.2389	43.1100	-221	-140	477	100646	0.57 
283.369	-0.0298	0.0332	1.1587	0.4272	-2.6855	-0.9155	1.0492	-11.7004	-124.3652	43.1200	-225	-140	473	100646	0.57 
283.463	-0.0396	0.0171	1.1509	-0.6714	0.0000	0.6714	1.0437	-11.0577	-124.4312	43.1300	-225	-139	475	100646	0.57 
283.572	-0.0459	0.0273	1.1763	-1.5869	4.0894	1.8921	0.9503	-10.0854	-124.3433	43.1200	-222	-138	474	100646	0.57 
283.667	-0.0820	0.0337	1.1768	-1.5869	-0.7324	2.8687	0.7635	-9.2725	-124.2444	43.1300	-224	-140	476	100646	0.57 
283.791	-0.0664	0.0059	1.1587	-0.7935	-6.8359	3.2959	0.7086	-9.0857	-124.1455	43.1300	-222	-140	476	100646	0.57 
283.870	-0.0908	0.0264	1.1660	0.5493	-9.7046	3.7231	0.6372	-9.1846	-124.0631	43.1200	-222	-138	479	100646	0.57 
283.994	-0.0723	0.0137	1.1182	-0.1221	-24.3530	-2.9907	0.7031	-10.2612	-124.2004	43.1300	-215	-142	480	100646	0.57 
284.088	0.0522	0.1147	1.0176	-3.2349	-9.1553	-3.4180	0.6152	-11.4587	-124.9091	43.1100	-211	-141	487	100646	0.57 
284.197	-0.0469	0.0327	1.0454	-2.0752	16.7236	8.5449	0.6427	-10.4480	-125.0574	43.1200	-210	-140	486	100646	0.57 
284.291	0.0503	-0.0459	1.0728	-0.6104	37.4756	6.5918	0.3625	-7.2400	-123.9917	43.1100	-218	-141	480	100647	0.57 
284.416	-0.0254	0.0459	1.1997	-3.4790	51.7578	2.8076	0.0989	-2.3840	-123.5797	43.1100	-228	-140	471	100646	0.57 
284.525	-0.2461	0.0215	1.2891	-6.7139	63.9038	3.4790	-0.2747	3.7793	-123.2886	43.1400	-245	-133	456	100646	0.57 
284.619	-0.2734	-0.0151	1.3765	-3.9063	63.5986	-4.5776	-0.8020	10.1898	-123.2776	43.1100	-260	-132	438	100646	0.57 
284.744	-0.1641	-0.0151	1.5571	-1.2817	64.5752	-4.5166	-1.1206	16.2872	-123.5358	43.1100	-276	-133	417	100647	0.57 
284.838	-0.2578	-0.0322	1.5742	-0.9766	60.3027	-7.1411	-1.3953	21.8518	-124.0906	43.1100	-291	-136	397	100647	0.57 
284.932	-0.3979	0.0547	1.6582	-1.7700	62.9272	-5.9814	-1.8457	27.2845	-125.0739	43.1100	-297	-134	374	100646	0.57 
285.041	-0.5337	0.0249	1.7490	-0.9766	66.7725	0.9766	-1.9446	32.8821	-125.5847	43.1100	-303	-137	349	100647	0.57 
285.135	-0.6377	0.0181	1.7949	-1.8921	61.6455	2.6855	-1.9006	38.2983	-125.5627	43.1200	-306	-131	327	100646	0.57 
285.260	-0.7300	0.0430	1.8521	-5.6152	55.2979	-3.1738	-2.2192	42.8467	-125.8429	43.1200	-303	-133	306	100647	0.57 
285.385	-0.7876	0.0034	1.8096	-2.6245	38.8794	3.8452	-2.4390	45.8130	-125.9363	43.1000	-299	-131	289	100647	0.57 
285.448	-0.8857	-0.0469	1.8945	-2.9907	39.9170	0.3052	-2.4445	48.4442	-125.9802	43.0900	-297	-131	275	100646	0.57 
285.604	-0.9707	-0.0083	1.8726	-5.0049	24.4751	-4.5166	-3.3948	50.2460	-126.9196	43.0900	-293	-131	266	100646	0.57 
285.682	-1.0068	-0.0259	1.8940	-3.8452	15.1978	-4.2114	-4.4879	50.8392	-128.3698	43.1200	-290	-133	256	100646	0.57 
285.807	-1.0142	-0.0381	1.9063	-2.3804	4.5776	-1.0376	-5.0262	50.3229	-129.2212	43.1100	-285	-131	249	100645	0.57 
285.885	-0.9902	-0.0283	1.8799	-1.4648	1.8921	-0.9766	-5.2130	49.2902	-129.8145	43.1100	-284	-133	253	100645	0.57 
286.025	-0.9971	-0.0278	1.8887	-0.7324	-1.2817	0.0610	-5.1691	47.9828	-130.1276	43.1400	-285	-135	248	100645	0.57 
286.119	-0.9937	-0.0264	1.8774	-0.1221	-1.5869	1.4038	-4.7791	46.6425	-130.0726	43.1300	-290	-132	254	100646	0.57 
286.229	-0.9878	-0.0288	1.8887	0.0000	-2.5635	1.4038	-4.3835	45.3955	-129.9738	43.1300	-285	-132	251	100646	0.57 
286.307	-0.9663	-0.0259	1.8794	-0.2441	-3.0518	1.0376	-4.0375	44.0552	-129.9573	43.1100	-285	-134	248	100645	0.57 
286.447	-0.9658	-0.0215	1.8872	-0.7935	-4.1504	0.9155	-3.7848	42.6489	-129.9298	43.1400	-288	-134	249	100646	0.57 
286.526	-0.9658	-0.0273	1.8882	-0.9155	-6.4087	0.7935	-3.5596	41.2097	-129.9188	43.1300	-288	-131	252	100646	0.57 
286.651	-0.9360	-0.0317	1.8706	-0.8545	-9.6436	-0.3662	-3.4882	39.5618	-129.9573	43.1400	-290	-134	255	100646	0.57 
286.776	-0.9287	-0.0288	1.8872	-0.9155	-10.4980	2.9297	-3.2245	37.8424	-129.8309	43.1200	-291	-133	255	100646	0.57 
286.854	-0.9429	-0.0288	1.8926	-1.7700	-18.0054	1.7090	-2.9993	35.8209	-129.4794	43.1400	-291	-129	261	100646	0.57 
286.964	-0.8794	-0.0400	1.8711	-1.9531	-30.7007	2.8687	-2.8070	32.7832	-129.0674	43.1400	-294	-133	270	100645	0.57 
287.088	-0.8149	-0.0322	1.8389	-2.5635	-36.5601	2.3193	-2.7246	28.7018	-128.6719	43.1300	-299	-130	279	100644	0.57 
287.182	-0.7266	-0.0435	1.8218	1.9531	-46.2036	-2.3804	-2.6257	24.2743	-128.2819	43.1400	-300	-125	292	100644	0.57 
287.291	-0.7368	-0.0513	1.8682	2.8687	-54.9927	-1.5259	-2.3676	18.9789	-128.1555	43.1400	-306	-130	310	100644	0.57 
287.369	-0.5938	-0.0225	1.7773	6.4087	-71.2280	5.4932	-1.7853	12.8815	-127.5568	43.1700	-305	-127	328	100645	0.57 
287.510	-0.4131	-0.0210	1.6304	7.2632	-68.1152	-0.4883	-1.0602	6.3446	-126.9250	43.1400	-303	-132	349	100645	0.57 
287.588	-0.2959	0.0469	1.6323	5.1270	-68.1763	-3.3569	-0.3955	-0.1593	-126.8811	43.1600	-295	-135	375	100645	0.57 
287.713	-0.3735	-0.0342	1.4458	4.0283	-65.7959	-1.1597	0.0604	-6.2292	-126.5955	43.1500	-287	-135	397	100645	0.57 
287.792	-0.0903	0.0234	1.3789	8.2397	-59.3872	-5.6763	0.6537	-11.5631	-126.6888	43.1400	-269	-138	422	100645	0.57 
287.916	-0.1953	0.0454	1.3364	9.8877	-52.7954	-7.6904	1.7578	-16.0840	-127.1777	43.1500	-259	-140	443	100646	0.57 
287.994	0.0122	0.1021	1.1489	6.1035	-41.9312	-1.5869	2.8949	-19.7095	-127.9193	43.1600	-247	-145	457	100646	0.57 
288.120	-0.0103	0.0903	1.2002	-0.7935	-26.7334	1.2207	3.3234	-21.9452	-128.0786	43.1400	-233	-145	468	100646	0.57 
288.229	-0.0220	0.0288	1.0791	-0.7324	-19.5923	6.0425	2.9663	-23.5052	-127.4799	43.1600	-222	-146	474	100646	0.57 
288.323	-0.1147	0.0527	1.1489	-0.0610	-2.7466	3.9673	2.6752	-23.1152	-126.9855	43.1400	-215	-145	482	100646	0.57 
288.448	0.0151	0.0645	1.0952	-0.9155	-7.1411	3.1738	2.4609	-22.0331	-126.7493	43.1300	-215	-147	484	100646	0.57 
288.542	0.0195	0.0391	1.0698	-0.1221	0.1221	-1.8311	2.2906	-20.6818	-126.5295	43.1300	-214	-146	483	100646	0.57 
288.683	-0.0659	0.0352	1.1587	0.4272	8.0566	2.8687	2.3346	-18.6768	-126.6449	43.1200	-216	-146	481	100646	0.57 
288.761	-0.0200	0.0156	1.1445	0.1221	-10.9863	-0.9766	2.2357	-17.4298	-126.4636	43.1200	-218	-145	481	100647	0.57 
288.917	-0.0562	0.0215	1.1660	-0.4272	0.0610	0.7935	2.1808	-15.7379	-126.5680	43.1200	-225	-144	483	100647	0.57 
288.964	-0.0288	0.0317	1.1528	0.0610	1.2817	-0.4272	2.0599	-14.6832	-126.3757	43.1100	-223	-146	481	100647	0.57 
289.074	-0.0347	0.0493	1.1558	-0.7935	2.5635	0.2441	2.0654	-13.5352	-126.5405	43.1100	-224	-146	485	100647	0.57 
289.167	-0.0459	0.0376	1.1611	-0.7935	1.0376	0.4272	1.9720	-12.5189	-126.5240	43.1000	-224	-145	483	100647	0.57 
289.245	-0.0376	0.0371	1.1616	-0.5493	0.0610	0.9155	1.8787	-11.6510	-126.5186	43.1100	-222	-144	482	100647	0.57 
289.355	-0.0264	0.0244	1.1538	-0.8545	0.6104	4.8218	1.7413	-10.8600	-126.1890	43.0900	-225	-145	484	100647	0.57 
289.495	-0.0332	0.0332	1.1689	-0.7324	0.9155	3.1738	1.6205	-9.9976	-126.0242	43.0800	-223	-144	481	100647	0.57 
289.589	-0.0615	0.0034	1.1851	-1.4648	2.9907	8.3618	1.4337	-9.2120	-125.6836	43.1000	-226	-143	479	100647	0.57 
289.683	-0.0801	0.0244	1.1743	-0.5493	-10.4370	0.4883	1.1591	-8.8330	-125.2826	43.0900	-227	-144	480	100647	0.57 
289.793	-0.0420	0.0322	1.1616	1.4038	-10.9863	-2.9297	1.1755	-9.1241	-125.2991	43.0800	-224	-142	484	100647	0.57 
289.902	-0.0044	0.0234	1.1001	0.4883	-19.8364	-4.3945	1.3458	-9.9756	-125.9198	43.1100	-217	-144	486	100647	0.57 
290.011	0.0005	0.0845	1.0605	0.1221	-15.2588	-7.6904	1.6864	-11.4478	-126.9525	43.0900	-214	-145	493	100647	0.57 
290.105	0.0620	0.0039	0.9580	-2.1973	20.3857	-0.9766	1.6370	-11.2720	-127.3315	43.1000	-208	-142	498	100647	0.57 
290.208	0.0762	0.0879	1.0332	-1.0986	47.9126	5.6763	1.6040	-7.3553	-127.0898	43.1000	-215	-146	488	100646	0.57 
290.318	-0.0557	0.0420	1.2012	-7.0801	66.7725	4.0894	1.2689	-1.2415	-126.3812	43.1000	-231	-145	473	100646	0.57 
290.427	0.0103	-0.0098	1.3438	-4.6387	75.1953	2.6855	0.6372	5.9766	-125.5847	43.0900	-251	-141	454	100646	0.57 
290.536	-0.2529	-0.0015	1.4263	-3.7842	67.0166	1.1597	0.3076	12.7551	-125.4803	43.0900	-268	-142	434	100647	0.57 
290.630	-0.2817	0.0049	1.5415	-2.8687	62.1338	-1.7700	0.0439	18.8196	-125.0793	43.0900	-284	-136	412	100646	0.57 
290.755	-0.3701	0.0176	1.6392	-3.8452	62.5610	-4.8218	-0.3955	24.4116	-125.2606	43.0800	-294	-133	386	100647	0.57 
290.880	-0.4834	0.0142	1.7026	-3.4180	61.3403	-1.2817	-0.7965	29.7894	-125.5902	43.0900	-299	-136	368	100647	0.57 
290.958	-0.5210	0.0010	1.7461	-4.8828	72.8149	-5.2490	-1.4612	35.2167	-126.1066	43.0800	-304	-134	344	100647	0.57 
291.037	-0.7129	0.0166	1.8232	-4.6387	73.9746	-9.2773	-2.6971	41.4679	-127.4524	43.0900	-307	-136	322	100647	0.57 
291.162	-0.8516	-0.0024	1.8906	-4.6997	53.0396	-2.9907	-3.8617	46.6095	-128.7543	43.0700	-303	-137	297	100647	0.57 
291.287	-0.9561	-0.0376	1.8813	-2.6855	42.9688	3.5400	-4.1254	49.9438	-129.0564	43.0800	-301	-135	280	100647	0.57 
291.365	-1.0239	-0.0239	1.8965	-3.9063	28.0151	4.4556	-4.2902	52.2015	-129.4080	43.0800	-292	-143	266	100647	0.57 
291.537	-1.0103	-0.0107	1.8896	-4.1504	19.9585	-0.1221	-4.6417	53.1464	-130.0562	43.0700	-286	-136	253	100647	0.57 
291.615	-1.0430	-0.0342	1.8838	-3.1128	11.9019	-0.3662	-5.0647	53.1134	-130.7263	43.0800	-285	-139	250	100646	0.57 
291.708	-1.0576	-0.0415	1.8960	-2.3804	8.1787	0.8545	-5.2020	52.6025	-131.0504	43.0700	-283	-138	247	100646	0.57 
291.802	-1.0601	-0.0352	1.8765	-1.0376	4.2725	1.0986	-5.0867	51.8335	-131.3251	43.0700	-281	-138	242	100646	0.57 
291.943	-1.0635	-0.0342	1.8887	-0.9155	2.5635	2.2583	-4.8010	50.8722	-131.4130	43.0700	-280	-138	243	100646	0.57 
