5
StartTime: 2017-07-11 15:23:39.304
Time(s)	ax(g)	ay(g)	az(g)	wx(deg/s)	wy(deg/s)	wz(deg/s)	AngleX(deg)	AngleY(deg)	AngleZ(deg)	T(°)	hx	hy	hz	Pressure(Pa)	Altitude(m) 
102.283	-1.1230	-0.0205	1.8726	0.1831	0.3052	-0.1221	-0.9833	30.3552	147.7936	43.7600	30	-242	235	100854	0.39 
102.471	-1.1157	-0.0171	1.8735	0.4272	-1.1597	0.2441	-0.9283	30.3552	147.8101	43.7400	34	-242	236	100853	0.39 
102.502	-1.1216	-0.0166	1.8726	0.1221	-0.6714	-0.1831	-0.8734	30.2783	147.8101	43.7500	34	-241	234	100853	0.39 
102.611	-1.1191	-0.0171	1.8765	-0.3662	1.1597	-0.4272	-0.8954	30.3168	147.7991	43.7700	34	-240	237	100854	0.39 
102.877	-1.1567	-0.0142	1.8926	0.4272	-3.9063	1.4038	-0.8514	30.2563	147.8101	43.7700	33	-241	236	100853	0.39 
102.955	-1.0874	-0.0122	1.8623	0.7935	0.4883	0.3662	-0.7361	30.0201	147.9089	43.7700	35	-244	238	100853	0.39 
103.065	-1.1304	-0.0225	1.8936	0.7935	-1.1597	-1.7700	-0.6866	30.0366	147.8595	43.7700	34	-240	240	100853	0.39 
103.252	-1.1475	-0.0122	1.9165	-2.3193	-15.0757	-11.3525	-1.0217	29.4379	147.2827	43.7700	33	-241	238	100853	0.39 
103.299	-1.1353	-0.0103	1.9082	-4.8218	-26.2451	-4.3945	-1.6754	27.4493	146.5741	43.7700	31	-238	231	100853	0.39 
103.424	-1.1133	0.0063	1.9204	-7.8735	-54.9316	-7.0190	-2.5433	23.7195	146.1292	43.7600	22	-237	225	100853	0.39 
103.424	-0.9424	-0.0898	1.9058	-8.3618	-66.2842	-3.6621	-3.3453	18.2318	146.4478	43.7600	4	-231	214	100853	0.39 
103.486	-0.9097	-0.0088	1.8164	-2.6855	-105.8350	-8.5449	-3.6255	10.3217	147.0300	43.7700	-18	-228	203	100853	0.39 
103.518	-0.6016	0.0757	1.8364	-15.0146	-58.1055	12.2681	-4.2847	3.8617	148.2275	43.7900	-45	-225	196	100853	0.39 
103.658	-0.4785	-0.1553	1.6162	-9.2773	-78.1860	-6.6528	-5.9711	-1.9391	151.5179	43.7700	-71	-221	189	100853	0.39 
103.752	-0.3892	-0.0557	1.6401	-9.2773	-71.7773	-0.4272	-7.1686	-8.0365	153.6053	43.7800	-98	-218	186	100853	0.39 
103.877	-0.2681	-0.1484	1.5176	-9.5215	-70.4346	3.7231	-8.6243	-13.8757	157.3407	43.7800	-127	-213	182	100853	0.39 
104.057	-0.2466	-0.1909	1.4683	-4.2114	-60.5469	-5.2490	-9.8932	-18.4680	161.5265	43.7800	-153	-209	186	100853	0.39 
104.119	-0.1602	-0.0239	1.3394	-1.7090	-49.6826	-2.5024	-10.6128	-22.4396	165.0806	43.7800	-172	-209	193	100854	0.39 
104.276	-0.1567	-0.1162	1.2915	-2.0142	-23.3154	4.5776	-11.7279	-24.4775	169.6509	43.7900	-189	-212	195	100854	0.39 
104.369	-0.2710	-0.1050	1.3799	-0.1831	17.9443	1.8311	-12.5134	-24.3842	173.4192	43.7600	-200	-209	205	100854	0.39 
104.573	-0.4302	-0.0801	1.6157	-2.9297	-0.1221	-3.2349	-12.8265	-23.0328	175.9570	43.7900	-200	-211	203	100853	0.39 
104.666	-0.2920	-0.0884	1.3291	0.9155	-4.0894	7.5684	-13.7329	-24.1315	-179.9121	43.7800	-206	-208	208	100853	0.39 
104.666	-0.0986	-0.1108	1.2778	4.2725	0.8545	-6.3477	-13.8263	-23.5217	-176.5997	43.7900	-210	-208	214	100853	0.39 
104.713	0.0083	-0.1704	1.1313	4.6387	-6.0425	1.7090	-13.5132	-22.1539	-174.2542	43.7600	-211	-211	217	100853	0.39 
104.744	-0.1592	-0.0942	1.3496	6.4697	8.7280	-10.5591	-12.4255	-20.1050	-173.1610	43.7700	-210	-211	214	100853	0.39 
105.057	-0.0737	-0.0674	1.2788	1.9531	-1.1597	-3.9673	-11.8762	-18.9734	-171.5131	43.7700	-209	-217	216	100853	0.39 
105.151	-0.0693	-0.0864	1.2642	1.2817	-2.8076	-6.5308	-11.5796	-17.7979	-169.8376	43.7700	-205	-216	215	100853	0.39 
105.198	-0.0713	-0.0840	1.2373	1.0376	-2.3804	-2.5024	-11.2335	-16.8640	-168.2886	43.7700	-206	-217	215	100852	0.39 
105.307	-0.0933	-0.0708	1.2832	0.7324	1.2207	-3.2959	-10.9204	-15.5896	-166.7615	43.7500	-207	-218	217	100853	0.39 
105.401	-0.0845	-0.0679	1.2769	0.4883	0.7324	-2.2583	-10.6842	-14.3811	-165.2563	43.7700	-208	-217	217	100852	0.39 
105.573	-0.0830	-0.0581	1.2700	0.0610	-0.1221	0.2441	-10.4150	-13.2550	-163.7787	43.7800	-207	-216	220	100853	0.39 
105.651	-0.0962	-0.0767	1.2856	-0.0610	1.5869	0.3662	-10.2228	-12.0850	-162.1967	43.7800	-205	-218	217	100853	0.39 
105.791	-0.0742	-0.0674	1.2837	-0.4272	0.3052	0.6104	-10.0140	-11.0577	-160.8179	43.7900	-204	-221	216	100853	0.39 
105.869	-0.1016	-0.0732	1.2705	0.2441	-0.0610	-0.6714	-9.8273	-10.2228	-159.3073	43.7800	-204	-220	217	100852	0.39 
106.041	-0.0488	-0.0659	1.2676	0.0610	-3.2959	-2.8076	-9.4922	-9.4977	-158.3844	43.7900	-202	-215	216	100853	0.39 
106.166	-0.0806	-0.0640	1.2744	-0.3052	0.0000	-0.7324	-9.2230	-8.7946	-157.3682	43.8000	-203	-220	220	100853	0.39 
106.463	-0.0845	-0.0625	1.2778	0.0000	0.0000	-1.4038	-8.9539	-8.0804	-156.4069	43.8000	-205	-221	217	100853	0.39 
106.463	-0.0698	-0.0684	1.2661	0.0000	-1.6479	-1.3428	-8.6957	-7.4817	-155.3741	43.8200	-202	-222	221	100853	0.39 
106.573	-0.0786	-0.0493	1.2671	-0.3662	-1.6479	-1.0376	-8.4375	-6.9763	-154.5007	43.8200	-205	-225	218	100852	0.39 
106.573	-0.0791	-0.0537	1.2686	-0.6714	-1.5259	0.0000	-8.2123	-6.4545	-153.5779	43.8000	-204	-221	220	100852	0.39 
106.573	-0.0640	-0.0513	1.2661	-0.6104	-1.2817	-0.4272	-8.0090	-5.9985	-152.7045	43.8000	-205	-224	222	100852	0.39 
106.573	-0.0854	-0.0645	1.2690	-0.3662	-1.8311	0.3052	-7.8168	-5.5865	-151.8750	43.8000	-204	-223	220	100852	0.39 
106.823	-0.0820	-0.0562	1.2729	-0.3052	-0.6714	-1.0376	-7.5970	-5.1965	-151.1115	43.8300	-205	-224	216	100852	0.39 
107.060	-0.0640	-0.0679	1.2354	-0.4272	-2.8076	-0.8545	-7.3993	-4.9438	-150.3424	43.8200	-204	-221	220	100852	0.39 
107.060	-0.0674	-0.0508	1.2554	-0.4883	-1.5259	0.1831	-7.1796	-4.5758	-149.6283	43.8100	-207	-219	219	100852	0.39 
107.169	-0.1343	-0.0503	1.2759	-1.9531	6.1646	5.0659	-7.0697	-3.9771	-148.8757	43.8200	-207	-219	220	100852	0.39 
107.372	-0.1201	-0.0010	1.2417	-0.3662	8.6060	1.6479	-6.9653	-3.2245	-147.7002	43.8200	-205	-220	217	100853	0.39 
107.468	-0.0254	-0.0859	1.1812	2.3193	-10.6201	0.1831	-6.6962	-2.9114	-147.7222	43.8300	-203	-218	220	100852	0.39 
107.631	0.1431	-0.2349	1.1616	-2.3804	-14.8315	2.6245	-6.7401	-3.8068	-146.3434	43.8200	-208	-217	220	100853	0.39 
107.631	0.0591	-0.1323	1.1138	3.5400	43.6401	-16.9678	-5.9930	-2.1423	-145.8984	43.8400	-211	-220	224	100853	0.39 
107.716	-0.0625	0.0747	1.2622	9.8267	54.2603	-9.7656	-5.0647	3.0487	-147.2717	43.8300	-196	-224	216	100853	0.39 
107.916	-0.1045	0.0557	1.5210	9.6436	65.0024	11.7798	-3.7354	9.2230	-147.1014	43.8600	-168	-228	212	100853	0.39 
107.916	-0.1655	-0.2188	1.5596	6.8359	66.3452	21.7285	-2.3456	14.8151	-144.8438	43.8500	-155	-226	207	100853	0.39 
108.233	-0.2485	-0.0107	1.6250	13.2446	57.1289	6.5308	-1.0437	20.1874	-144.8438	43.8400	-142	-227	204	100853	0.39 
108.233	-0.3291	-0.0659	1.6416	12.2070	57.3120	-4.3945	0.2032	25.2301	-145.3986	43.8400	-123	-233	203	100853	0.39 
108.255	-0.4966	-0.0122	1.7231	10.5591	62.8662	-7.8125	0.7416	30.6244	-147.4860	43.8300	-101	-238	203	100853	0.39 
108.433	-0.6748	0.0303	1.7769	5.5542	71.0449	-13.9160	0.7361	36.4856	-149.6832	43.8600	-79	-242	206	100853	0.39 
108.602	-0.7090	-0.0024	1.7720	5.2490	74.6460	-6.4087	0.5328	42.5281	-152.2925	43.8400	-51	-244	213	100854	0.39 
108.618	-0.8706	0.0239	1.8706	1.7700	52.3071	-0.9766	0.0385	47.8619	-155.4071	43.8500	-28	-244	219	100853	0.39 
108.787	-1.0220	0.0405	1.8423	2.3804	48.0957	-11.2915	-1.4557	51.5533	-159.7247	43.8600	-5	-247	226	100854	0.39 
108.803	-1.0854	0.0205	1.8813	1.7700	47.9736	-9.0332	-3.2410	54.8987	-164.5422	43.8500	11	-247	229	100853	0.39 
108.803	-1.2280	0.0479	1.9121	-3.7842	34.2407	-13.5498	-6.3940	57.5464	-170.5847	43.8500	27	-245	242	100853	0.39 
108.856	-1.1763	0.0562	1.8521	-3.7842	13.2446	-1.3428	-8.7177	57.9968	-175.2045	43.8600	42	-243	244	100853	0.39 
108.935	-1.2017	0.0181	1.9014	-4.6387	8.5449	0.8545	-9.4702	57.5354	-178.2312	43.8600	47	-242	245	100853	0.39 
108.988	-1.1782	0.0098	1.8525	-3.1128	1.9531	2.8076	-9.9152	56.3544	179.2584	43.8700	51	-241	246	100853	0.39 
109.188	-1.1738	0.0044	1.8740	-1.3428	-0.9766	-0.4883	-9.9371	55.0525	177.1765	43.8500	48	-241	248	100852	0.39 
109.304	-1.1777	0.0029	1.8667	-1.5259	-1.2207	0.3052	-9.8547	53.6133	175.2264	43.8600	48	-241	241	100852	0.39 
109.636	-1.1836	0.0112	1.8882	-2.7466	-3.4790	-0.1221	-9.8218	52.1960	173.3588	43.8600	50	-242	245	100852	0.39 
109.636	-1.1597	-0.0112	1.8774	-0.9155	-5.3711	-0.4883	-9.7119	50.5646	171.5350	43.8600	50	-240	241	100852	0.39 
109.721	-1.1626	-0.0083	1.8560	0.7324	-3.4790	0.0610	-9.3878	49.0814	169.9091	43.8700	50	-237	241	100852	0.39 
109.975	-1.1489	0.0098	1.8633	0.0000	-2.6245	1.0986	-8.8989	47.8180	168.5193	43.8700	45	-243	241	100852	0.39 
109.990	-1.1484	0.0088	1.8691	0.0000	-1.5869	-0.3052	-8.5254	46.6644	167.1899	43.8700	44	-241	241	100853	0.39 
109.990	-1.1582	0.0005	1.8706	-0.4883	0.3662	-1.2207	-8.2837	45.6866	165.7892	43.8700	48	-242	241	100853	0.39 
109.990	-1.1563	0.0000	1.8599	-1.0376	-1.0986	0.0000	-8.0475	44.8242	164.5203	43.8800	46	-238	238	100852	0.39 
110.037	-1.1450	0.0024	1.8628	-1.2817	0.0000	-0.7935	-7.8223	43.9893	163.3722	43.8800	48	-243	243	100853	0.39 
110.206	-1.1777	-0.0020	1.8818	-1.3428	-0.7935	-1.2207	-7.7563	43.2751	162.0868	43.8800	48	-240	241	100852	0.39 
110.206	-1.1431	-0.0098	1.8604	-1.3428	-0.4272	-1.3428	-7.6355	42.4402	160.9442	43.8900	46	-241	238	100853	0.39 
110.391	-1.1450	-0.0127	1.8662	-1.9531	-0.8545	-1.2817	-7.5366	41.6492	159.8566	43.9000	49	-239	240	100852	0.39 
110.460	-1.1538	-0.0103	1.8647	-1.8921	0.3052	-1.4038	-7.5421	40.9790	158.7195	43.9100	49	-241	242	100853	0.39 
110.592	-1.1611	-0.0156	1.8779	-1.7090	-4.8218	-0.3662	-7.3883	40.2429	157.8406	43.9100	47	-239	240	100852	0.39 
110.661	-1.1416	-0.0181	1.8696	-2.0752	-4.2114	-1.2817	-7.2290	39.2816	157.0715	43.9200	47	-237	238	100852	0.39 
110.823	-1.1377	-0.0327	1.8721	-2.5024	-4.7607	-1.2207	-7.1301	38.3148	156.3190	43.9100	46	-234	237	100852	0.39 
110.823	-1.1509	-0.0396	1.8931	-1.1597	-6.1646	-3.9063	-7.1686	37.4194	155.3741	43.9300	45	-235	234	100852	0.39 
110.977	-1.1494	-0.0342	1.8867	-1.4038	-11.4746	-0.3662	-6.9708	36.0626	154.7040	43.9400	43	-235	234	100852	0.39 
111.262	-1.1084	-0.0376	1.8975	-0.9766	-21.3013	-1.5869	-6.7181	34.1235	154.2645	43.9500	39	-234	231	100852	0.39 
111.378	-1.0850	-0.0386	1.9043	-2.1973	-29.4800	-5.0659	-6.5369	31.3605	153.8690	43.9400	33	-232	228	100852	0.39 
111.679	-1.0054	-0.0107	1.8818	-3.6621	-43.4570	-6.7139	-6.6742	27.5262	153.2922	43.9400	25	-231	221	100851	0.39 
111.794	-0.9824	-0.0381	1.9468	-0.2441	-64.5752	-11.5356	-6.6687	22.3956	153.0835	43.9400	9	-229	213	100852	0.39 
111.826	-0.8257	-0.0083	1.8008	-0.6714	-89.1113	1.6479	-6.1743	14.7931	153.7921	43.9600	-10	-224	203	100852	0.39 
111.826	-0.6714	-0.0088	1.7632	-3.9063	-64.8193	5.0049	-6.1469	7.9761	155.5060	43.9500	-38	-224	195	100852	0.39 
111.826	-0.5439	-0.1304	1.6553	-5.1880	-79.2847	6.0425	-6.3776	1.3458	158.1866	43.9400	-68	-221	188	100851	0.39 
112.196	-0.3740	-0.0420	1.6016	-3.4790	-75.0732	-3.6011	-6.7896	-5.1965	160.5048	43.9600	-95	-223	187	100852	0.39 
112.311	-0.1890	-0.0845	1.5239	-2.1362	-70.4346	9.5215	-7.4323	-11.6071	164.0039	43.9600	-124	-216	188	100852	0.39 
112.460	-0.1035	-0.0703	1.3975	-3.8452	-59.4482	-5.8594	-7.8333	-16.7267	167.4866	43.9400	-149	-216	193	100852	0.39 
112.462	-0.0605	-0.0693	1.2920	-2.4414	-44.9219	4.9438	-8.4320	-20.4016	171.1945	43.9400	-171	-218	195	100853	0.39 
112.463	0.0811	-0.0981	1.2656	2.0752	-31.0059	6.8359	-9.3329	-22.4561	175.3693	43.9300	-189	-214	205	100853	0.39 
112.512	0.3574	-0.2549	1.1123	4.1504	-46.3257	-3.0518	-10.0909	-24.0985	179.2035	43.9500	-201	-216	210	100853	0.39 
112.627	0.3569	-0.2236	1.1309	4.0283	-58.2275	15.3198	-9.9756	-24.0601	-177.9071	43.9300	-205	-219	211	100853	0.39 
112.797	0.1567	-0.0659	1.2124	2.9907	-27.0996	-1.8311	-9.7064	-22.8076	-175.7758	43.9400	-209	-217	216	100853	0.39 
112.866	-0.2031	-0.0493	1.3477	5.3101	-14.1602	0.5493	-9.8108	-21.2805	-173.2214	43.9300	-210	-220	217	100853	0.39 
112.866	-0.0864	-0.0562	1.2500	4.2725	9.0942	-11.7188	-9.1351	-20.7147	-171.6669	43.9400	-214	-221	214	100853	0.39 
112.866	-0.0391	-0.0781	1.2314	1.6479	-4.0283	1.1597	-8.6847	-19.1986	-170.3046	43.9300	-205	-224	220	100853	0.39 
112.982	-0.0737	-0.0347	1.2612	0.4272	-1.2817	-2.7466	-8.4869	-18.0835	-168.7280	43.9300	-206	-222	216	100853	0.39 
113.029	-0.0532	-0.0625	1.2236	-0.6714	-5.5542	-1.6479	-8.4485	-17.1881	-167.0636	43.9400	-205	-225	223	100853	0.39 
113.082	-0.0498	-0.0313	1.2339	0.1221	-0.6104	-1.9531	-8.3331	-16.2103	-165.5859	43.9300	-209	-219	223	100853	0.39 
113.395	-0.0747	-0.0327	1.2437	-0.4883	0.0000	-0.6714	-8.1903	-15.1337	-164.1028	43.9500	-208	-224	223	100853	0.39 
113.457	-0.0610	-0.0449	1.2329	0.0610	-2.2583	-0.7935	-8.0365	-14.1724	-162.6581	43.9200	-206	-223	224	100853	0.39 
113.473	-0.0605	-0.0410	1.2314	-0.1221	-1.7090	-0.0610	-7.8827	-13.3154	-161.2683	43.9300	-206	-225	221	100853	0.39 
113.660	-0.0718	-0.0439	1.2324	-0.2441	-1.7700	-1.1597	-7.7234	-12.5024	-159.9994	43.9200	-205	-226	223	100853	0.39 
113.801	-0.0557	-0.0371	1.2246	-0.5493	-0.7935	0.0610	-7.5861	-11.6730	-158.7909	43.9400	-209	-224	226	100853	0.39 
113.863	-0.0649	-0.0303	1.2471	0.4272	-1.6479	-0.4272	-7.3773	-10.7996	-157.6813	43.9500	-206	-225	221	100853	0.39 
113.863	-0.0698	-0.0322	1.2217	-0.3052	-1.4038	0.2441	-7.1741	-10.1514	-156.5771	43.9600	-207	-223	228	100853	0.39 
114.035	-0.0557	-0.0347	1.2026	-0.2441	0.7935	-0.4883	-7.0093	-9.3658	-155.4565	43.9500	-210	-225	224	100853	0.39 
114.254	-0.0459	-0.0381	1.2515	-0.7935	-0.5493	1.2207	-6.8390	-8.3826	-154.5062	43.9400	-208	-225	220	100853	0.39 
115.738	-0.0625	-0.0366	1.2310	-0.2441	-0.5493	0.4883	-6.6467	-7.7783	-153.5999	43.9400	-208	-229	225	100853	0.39 
116.035	-0.0493	-0.0220	1.2280	-0.1221	-0.7935	-0.7935	-6.4655	-7.2125	-152.6825	43.9400	-205	-226	228	100852	0.39 
116.160	-0.0508	-0.0327	1.2007	-0.1831	-1.1597	1.0986	-6.2512	-6.7126	-151.8201	43.9400	-210	-226	225	100852	0.39 
116.160	-0.0625	-0.0352	1.2227	-1.0986	6.8970	10.2539	-6.0425	-5.6964	-150.9741	43.9700	-205	-225	225	100852	0.39 
116.160	-0.2192	-0.0132	1.2969	-3.7842	7.9346	-4.3945	-6.0095	-4.4330	-150.2161	43.9600	-210	-225	222	100852	0.39 
116.160	-0.0244	-0.0796	1.0527	1.8921	-2.3804	13.3667	-6.0095	-4.3890	-149.6832	43.9600	-204	-228	223	100852	0.39 
116.160	-1.1216	-0.0234	1.9219	-4.4556	53.1006	-2.8076	-7.3059	54.3494	-165.8661	43.9700	12	-234	219	100853	0.39 
116.363	-1.1689	-0.0522	1.8569	-3.4180	31.6162	-4.1504	-9.6405	56.7389	-170.8923	43.9700	31	-235	223	100853	0.39 
116.363	-1.1694	0.0142	1.8784	-3.5400	19.5923	-3.4790	-11.8323	57.5793	-175.8362	43.9700	42	-234	230	100853	0.39 
116.566	-1.1826	0.0039	1.8691	-1.2817	7.5684	4.0894	-12.4146	57.3761	-178.8519	43.9800	48	-233	233	100853	0.39 
116.582	-1.1602	-0.0361	1.8716	-2.3804	0.6104	3.7231	-12.0300	56.3544	179.2529	43.9700	51	-233	237	100853	0.39 
116.582	-1.1606	-0.0444	1.8730	-1.7700	-3.5400	1.5869	-11.7719	54.7284	177.3413	43.9700	54	-237	235	100853	0.39 
116.645	-1.1436	-0.0430	1.8774	0.0000	-2.1973	0.0000	-11.5631	53.0804	175.3912	43.9700	52	-234	233	100853	0.39 
116.770	-1.1440	-0.0308	1.8560	0.0000	-2.8076	0.0000	-11.2610	51.4764	173.5071	43.9800	51	-233	233	100853	0.39 
117.238	-1.1304	-0.0342	1.8677	-0.9155	-1.2817	0.6714	-10.9644	50.1306	171.7163	44.0000	48	-236	233	100853	0.39 
117.254	-1.1274	-0.0249	1.8633	-0.5493	-2.5635	0.7324	-10.5908	48.8782	170.2057	43.9900	50	-236	232	100853	0.39 
117.254	-1.1421	-0.0259	1.8662	-0.8545	-2.8076	1.2207	-10.1733	47.6752	168.8324	44.0100	49	-235	234	100853	0.39 
117.254	-1.1182	-0.0293	1.8711	-1.0986	-1.8921	0.1831	-9.8273	46.4392	167.5085	44.0000	48	-234	239	100853	0.39 
117.254	-1.1421	-0.0376	1.8721	-1.5869	-2.5635	0.9155	-9.5471	45.3406	166.2506	44.0000	46	-234	231	100853	0.39 
117.348	-1.1226	-0.0317	1.8604	-2.0752	-4.1504	1.5869	-9.2230	44.2035	165.1245	44.0000	45	-232	235	100853	0.39 
117.645	-1.1157	-0.0405	1.8638	-2.1973	-3.2349	-0.7935	-9.0472	43.0389	164.0643	44.0300	45	-234	227	100853	0.39 
117.754	-1.1196	-0.0479	1.8696	-0.7324	-4.3335	-0.0610	-8.8110	41.9458	162.9602	44.0300	42	-235	230	100853	0.39 
117.754	-1.1108	-0.0396	1.8750	-0.7324	-3.2349	1.0376	-8.4705	40.9351	162.0483	44.0300	41	-232	231	100853	0.39 
117.816	-1.1152	-0.0488	1.8887	-0.2441	-4.0283	0.2441	-8.1024	39.9628	161.2903	44.0300	39	-235	230	100853	0.39 
117.926	-1.1313	-0.0664	1.9150	0.7324	-9.3384	-0.9766	-7.7563	38.8202	160.4169	44.0400	39	-235	231	100853	0.39 
117.990	-1.1191	-0.0527	1.8931	2.5635	-25.4517	-4.2114	-7.3334	36.4911	159.3951	44.0300	37	-231	226	100853	0.39 
118.101	-1.1743	-0.0083	1.9805	-2.0752	-51.2695	-4.1504	-6.9708	32.5745	158.6426	44.0500	27	-233	225	100853	0.39 
118.211	-0.9565	-0.0200	1.8472	-6.8359	-98.8770	6.4087	-6.4270	25.0928	159.3182	44.0500	9	-230	209	100853	0.39 
118.382	-0.8022	-0.0059	1.7485	-5.6152	-80.5054	-7.0801	-6.6138	16.3037	160.1971	44.0500	-19	-228	197	100852	0.39 
118.601	-0.6274	-0.1016	1.8042	-10.3760	-72.4487	-4.8828	-7.3334	9.6460	160.6805	44.0500	-44	-223	190	100852	0.39 
118.695	-0.5010	-0.1260	1.7061	-0.1221	-90.8203	-5.4321	-7.7179	1.8896	162.2845	44.0500	-76	-220	184	100852	0.39 
118.945	-0.3315	-0.1162	1.5171	-2.5635	-85.7544	11.4746	-7.5861	-6.0645	165.0641	44.0400	-104	-217	186	100851	0.39 
118.961	-0.1899	-0.1284	1.4907	9.9487	-75.9888	-15.5640	-8.2507	-12.5079	168.7830	44.0400	-140	-220	186	100851	0.39 
118.961	-0.0757	-0.0884	1.2886	11.5967	-62.8052	-8.1787	-7.3663	-18.4021	170.7550	44.0500	-161	-221	195	100851	0.39 
118.961	-0.1050	0.0264	1.1899	3.8452	-39.9170	-5.0049	-6.8719	-22.2968	173.2764	44.0600	-181	-224	204	100851	0.39 
118.961	-0.2852	-0.0405	1.3643	-2.2583	-11.9629	6.3477	-6.9763	-23.3405	176.4844	44.0700	-192	-224	216	100851	0.40 
119.117	-0.2661	-0.0605	1.2588	2.8687	0.9155	2.1973	-7.6410	-24.4446	-179.3463	44.0600	-203	-223	213	100851	0.40 
119.164	-0.2397	0.0200	1.1929	0.6714	3.9673	-19.4092	-7.8552	-25.2301	-176.7096	44.0600	-208	-224	221	100851	0.39 
119.304	0.1309	-0.0244	1.0747	0.7324	-8.6670	-0.5493	-7.5641	-24.9005	-175.2045	44.0600	-210	-227	219	100851	0.39 
119.367	-0.0688	0.0034	1.1304	3.9673	7.2632	-4.5166	-7.2784	-23.1372	-173.5071	44.0400	-210	-229	224	100851	0.39 
119.382	-0.0684	-0.0063	1.2588	1.4648	-0.0610	-1.0376	-6.9543	-20.8356	-171.7438	44.0500	-207	-228	226	100851	0.39 
119.539	-0.0527	0.0195	1.2241	-0.4272	0.0610	-1.2207	-6.7731	-19.4458	-170.1727	44.0500	-205	-232	223	100851	0.39 
119.617	-0.0444	-0.0181	1.2065	-1.5259	0.7324	-0.4272	-6.9598	-18.1604	-168.2666	44.0500	-206	-235	226	100851	0.39 
119.757	-0.0522	-0.0181	1.1826	-0.8545	0.1831	0.9155	-6.9543	-16.8970	-166.6241	44.0800	-201	-229	227	100851	0.39 
119.773	-0.0615	-0.0156	1.2144	-0.1221	2.1362	0.9155	-6.9214	-15.4468	-164.9213	44.0500	-203	-227	224	100852	0.39 
119.961	-0.0703	-0.0244	1.2324	-0.0610	2.6245	0.6714	-6.8225	-14.0955	-163.4106	44.0500	-205	-230	223	100852	0.39 
120.039	-0.0308	-0.0186	1.1997	-0.1831	0.0610	2.0142	-6.6522	-13.0243	-161.9495	44.0500	-202	-227	222	100852	0.39 
120.523	-0.0537	-0.0259	1.2104	-0.3052	-0.4272	-1.3428	-6.5753	-11.9586	-160.5762	44.0600	-205	-227	220	100852	0.39 
120.633	-0.0571	-0.0239	1.2319	0.1831	1.4648	-0.4272	-6.3776	-10.9039	-159.4446	44.0500	-202	-228	221	100852	0.39 
120.914	-0.0449	-0.0190	1.2500	0.3052	-0.3662	2.9297	-6.1523	-9.8877	-158.3295	44.0600	-205	-232	224	100852	0.39 
121.244	-0.0474	-0.0337	1.2070	-0.6104	-2.9907	1.7090	-6.0480	-9.3384	-156.9617	44.0600	-206	-228	224	100852	0.39 
121.260	-0.0542	-0.0181	1.2241	-0.0610	1.3428	-0.1831	-5.8777	-8.5968	-155.9454	44.0500	-205	-229	224	100852	0.39 
121.260	-0.0522	-0.0215	1.2651	-1.4038	-0.3662	0.7324	-5.7678	-7.7893	-154.9347	44.0500	-208	-230	223	100852	0.39 
121.260	-0.1147	0.0039	1.1890	-1.2817	0.1831	1.3428	-5.5920	-7.2235	-154.3964	44.0400	-206	-229	223	100851	0.39 
121.260	-0.0688	-0.0645	1.2407	0.3052	-0.9155	7.7515	-5.4932	-6.8610	-153.2263	44.0700	-202	-228	223	100851	0.39 
121.369	0.3774	-0.0547	0.8179	-0.2441	-22.7051	8.7280	-5.5151	-8.2343	-150.7709	44.0700	-211	-226	224	100851	0.39 
121.651	-0.0776	-0.1958	1.2002	5.8594	50.1709	-15.8081	-5.0043	-4.1638	-150.3534	44.0500	-209	-226	223	100851	0.39 
121.682	-0.0884	0.0093	1.2783	6.2866	70.3125	-10.6812	-3.7518	1.8182	-151.4630	44.0600	-190	-234	216	100852	0.39 
121.682	-0.0078	0.1279	1.4390	0.9155	75.0122	28.9307	-3.0762	8.8715	-151.1884	44.0600	-166	-231	207	100851	0.39 
