5
StartTime: 2017-07-11 15:23:39.304
Time(s)	ax(g)	ay(g)	az(g)	wx(deg/s)	wy(deg/s)	wz(deg/s)	AngleX(deg)	AngleY(deg)	AngleZ(deg)	T(°)	hx	hy	hz	Pressure(Pa)	Altitude(m) 
146.248	-0.9946	-0.0098	1.8799	0.0000	-1.5869	-0.1221	-0.4944	27.0923	149.7162	44.6000	32	-232	221	100850	0.40 
146.498	-1.0015	-0.0083	1.8867	-0.0610	0.0000	0.3052	-0.5054	27.0978	149.7491	44.6000	33	-231	221	100850	0.40 
146.545	-0.9976	-0.0098	1.8809	-0.5493	-0.2441	0.3662	-0.5109	27.0868	149.8151	44.6100	32	-232	224	100850	0.40 
146.576	-0.9966	-0.0107	1.8833	-0.6104	-0.0610	-0.2441	-0.5603	27.1033	149.8425	44.6100	33	-234	222	100850	0.40 
146.576	-0.9980	-0.0122	1.8813	-0.6104	0.4883	-0.6104	-0.6152	27.1582	149.7931	44.6000	34	-233	224	100850	0.40 
146.779	-1.0039	-0.0112	1.8799	-0.6104	0.6714	-0.2441	-0.6812	27.2571	149.7546	44.6000	32	-235	222	100850	0.40 
146.826	-1.0098	-0.0093	1.8975	0.0000	0.3052	0.1221	-0.7031	27.3669	149.7382	44.6100	33	-231	219	100850	0.40 
146.967	-0.9912	-0.0127	1.8901	-0.9155	0.7935	-0.1831	-0.7251	27.3669	149.7711	44.6200	31	-230	222	100850	0.40 
146.998	-1.0020	-0.0142	1.8911	-0.5493	-1.2207	-0.6104	-0.7910	27.3944	149.7052	44.6000	34	-230	223	100850	0.40 
147.140	-0.9951	-0.0142	1.8809	-0.8545	-0.3662	-0.9155	-0.8734	27.3340	149.6613	44.6100	29	-232	217	100850	0.40 
147.454	-1.0063	-0.0151	1.8906	-0.6714	-3.4790	-0.6714	-0.9283	27.1472	149.6832	44.6100	31	-227	216	100850	0.40 
147.534	-0.9585	-0.0034	1.9360	-1.1597	-1.4648	1.4038	-0.9119	26.8231	149.7656	44.6000	30	-232	220	100850	0.40 
147.534	-1.0439	-0.0415	1.9004	-1.7700	-10.3760	-5.2490	-1.1646	26.4001	149.8260	44.6100	30	-227	220	100849	0.40 
147.550	-1.0767	-0.0186	1.9165	-0.0610	-40.9546	-5.6152	-1.4447	24.0546	149.2218	44.6100	24	-227	215	100849	0.40 
147.756	-0.9243	-0.0210	1.9180	1.6479	-63.4155	-1.4648	-1.4557	19.0887	149.0845	44.6100	16	-226	206	100849	0.40 
147.888	-0.8052	-0.0249	1.8472	3.2959	-83.0688	-4.4556	-1.2524	12.1069	149.5679	44.6300	-8	-224	199	100849	0.40 
148.057	-0.6997	0.0225	1.7134	5.0049	-73.0591	5.5542	-0.7031	4.8615	150.5511	44.6100	-38	-228	193	100849	0.40 
148.258	-0.5327	0.0146	1.7197	1.4038	-80.1392	5.4932	-0.5988	-2.0654	153.2373	44.6200	-66	-227	192	100849	0.40 
148.320	-0.3545	-0.0044	1.5576	-1.8311	-84.9609	1.5259	-1.0052	-9.1296	156.0278	44.6300	-94	-226	191	100849	0.40 
148.436	-0.1982	0.0400	1.4722	6.8359	-68.4204	5.1270	-1.4722	-15.7214	158.9117	44.6200	-125	-226	191	100849	0.40 
148.590	-0.0923	0.0215	1.2910	-0.2441	-59.3262	1.9531	-1.7578	-20.8081	161.9495	44.6200	-150	-230	200	100849	0.40 
148.706	-0.1172	-0.0391	1.2910	-0.3662	-35.1563	0.0000	-2.4884	-23.9612	165.3607	44.6200	-167	-226	202	100849	0.40 
148.706	-0.1216	-0.0054	1.4219	-2.8687	-28.1982	-3.2959	-3.1860	-24.7961	168.4369	44.6100	-180	-231	208	100849	0.40 
148.706	-0.0908	-0.0015	1.3271	1.8311	-30.6396	5.9814	-3.6749	-25.6476	171.7493	44.6000	-189	-231	210	100850	0.40 
148.706	-0.3647	0.0142	1.4404	2.1973	3.5400	-5.2490	-3.8562	-25.6311	174.9518	44.5900	-193	-230	214	100849	0.40 
148.937	-0.0938	-0.0254	1.1460	2.9907	-7.7515	-7.0190	-4.1034	-27.1967	177.4237	44.6100	-200	-232	222	100849	0.40 
149.175	0.0786	-0.0254	1.0781	3.6011	-6.2256	-0.1221	-3.9056	-26.2738	179.3353	44.5800	-203	-232	224	100849	0.40 
149.237	-0.1211	0.0781	1.3208	1.8311	13.3057	-8.9111	-3.6035	-23.8678	-178.9014	44.5900	-203	-235	221	100849	0.40 
149.391	-0.0313	-0.0156	1.1875	1.2207	0.7324	-3.6011	-3.6310	-22.3627	-176.6931	44.5900	-199	-233	222	100849	0.40 
149.491	-0.0508	0.0020	1.1792	-1.3428	-6.7139	-2.8687	-3.6035	-21.2421	-175.0726	44.5900	-198	-234	226	100849	0.40 
149.723	-0.0571	0.0630	1.1909	-0.9766	-2.8076	-1.8921	-3.6804	-20.1819	-173.4851	44.5900	-201	-234	225	100850	0.40 
149.823	-0.0439	0.0488	1.1987	0.3662	1.2817	-0.5493	-3.6200	-18.9240	-171.8207	44.5900	-199	-238	226	100850	0.40 
149.823	-0.0410	0.0171	1.1860	0.1831	-1.7090	-2.5024	-3.5815	-17.7594	-170.1013	44.5900	-198	-238	229	100849	0.40 
149.892	-0.0469	0.0562	1.1909	0.3662	-0.6104	-0.9155	-3.4662	-16.6772	-168.6896	44.5800	-197	-238	227	100850	0.40 
150.008	-0.0591	0.0503	1.2007	-0.2441	0.3052	-0.4272	-3.3344	-15.5402	-167.2778	44.5800	-198	-236	226	100850	0.40 
150.008	-0.0537	0.0405	1.1851	-0.1831	-1.1597	-0.5493	-3.2410	-14.5459	-165.8826	44.5800	-199	-238	228	100850	0.40 
150.062	-0.0469	0.0488	1.1919	-0.1221	-0.7324	-0.5493	-3.1311	-13.5736	-164.5752	44.5700	-198	-239	229	100850	0.40 
150.062	-0.0527	0.0493	1.1943	-0.4883	-1.4648	0.1221	-2.9938	-12.6947	-163.3997	44.5800	-194	-241	230	100850	0.40 
150.177	-0.0498	0.0518	1.2026	0.4883	-0.9766	-0.4883	-2.8674	-11.8488	-162.2296	44.5900	-200	-238	231	100850	0.40 
150.260	-0.0479	0.0435	1.1938	-0.0610	-0.5493	1.5259	-2.6697	-11.1017	-161.0815	44.6000	-198	-238	229	100850	0.40 
150.277	-0.0503	0.0645	1.2075	-0.1221	-2.5635	0.3052	-2.5323	-10.3766	-159.9609	44.5700	-198	-238	229	100849	0.40 
150.494	-0.1592	0.0942	1.1299	1.9531	-0.0610	1.5259	-2.1863	-9.7998	-158.7634	44.5900	-201	-238	233	100849	0.40 
150.510	-0.2397	0.0288	1.1758	-1.7090	15.6250	-0.6714	-2.1698	-8.2562	-157.3242	44.5800	-198	-239	230	100849	0.40 
150.731	0.2578	-0.1104	0.8066	-1.4038	20.0195	12.1460	-2.1588	-8.9264	-155.2368	44.5900	-199	-232	229	100849	0.40 
150.838	-0.0308	0.0229	1.1411	3.7231	50.7202	-19.2871	-2.2412	-3.8123	-155.0446	44.5800	-196	-236	222	100849	0.40 
151.034	-0.1475	0.1621	1.4390	1.6479	81.9702	-18.0664	-1.6809	3.0652	-156.7145	44.6000	-174	-238	216	100849	0.40 
151.196	-0.2690	0.1016	1.4063	-0.7324	62.1948	20.9351	-1.0547	9.9811	-156.4563	44.5900	-151	-240	209	100849	0.40 
151.212	-0.4282	0.0825	1.5737	5.3101	60.4248	2.7466	-0.7635	16.7871	-155.4895	44.5800	-130	-240	202	100849	0.40 
151.265	-0.4263	-0.0952	1.5811	6.4697	67.9932	13.2446	0.2252	23.1812	-155.1379	44.5900	-106	-237	202	100849	0.40 
151.402	-0.4756	0.0991	1.7012	-0.8545	75.8057	-11.2305	-0.0879	30.0037	-156.6815	44.5800	-85	-240	198	100849	0.40 
151.463	-0.6284	0.0430	1.7471	-2.1973	63.5986	-8.4229	-0.7086	36.2878	-158.8898	44.5900	-60	-243	204	100850	0.40 
151.490	-0.7710	0.1040	1.8135	-4.5166	64.6973	-11.7188	-1.9061	41.5833	-161.4935	44.5900	-35	-240	208	100850	0.40 
151.606	-0.9092	0.0576	1.8911	-6.8970	55.6030	-11.5967	-3.7573	46.4008	-165.0201	44.5800	-9	-241	210	100850	0.40 
151.674	-1.0420	0.0254	1.9121	-5.6763	46.9360	-5.5542	-5.7404	50.2570	-169.1345	44.5700	10	-239	215	100850	0.40 
151.807	-1.0610	0.0591	1.8560	-7.0190	26.6724	2.6245	-7.4927	52.3114	-172.8809	44.5900	24	-238	223	100850	0.40 
151.854	-1.0845	0.0098	1.9336	-4.5776	10.7422	6.5308	-7.7399	52.8333	-174.7211	44.5900	33	-234	227	100850	0.40 
152.023	-1.0322	0.0059	1.8950	-1.7700	1.5259	3.1128	-7.6300	52.0258	-176.4185	44.5800	35	-235	226	100850	0.40 
152.092	-1.0059	0.0176	1.8721	-0.1831	-5.9814	0.6714	-7.4542	50.3009	-178.2202	44.5800	34	-237	228	100850	0.40 
152.223	-1.0020	0.0020	1.8892	-1.4038	-7.1411	0.8545	-7.1741	48.3673	-179.8242	44.5800	34	-233	227	100850	0.40 
152.290	-0.9849	0.0073	1.8770	-1.6479	-7.1411	-0.5493	-7.1960	46.4996	178.4070	44.5900	30	-234	224	100850	0.40 
152.427	-0.9785	-0.0054	1.8760	-1.7700	-5.1270	-0.9766	-7.1631	44.8022	176.7480	44.5900	30	-233	221	100850	0.40 
152.628	-0.9805	-0.0083	1.8887	-2.4414	-6.2866	-0.2441	-7.1631	43.2861	175.1770	44.5700	30	-232	219	100850	0.40 
152.706	-0.9775	0.0127	1.8613	-0.9766	-6.6528	-0.7324	-7.1136	41.6272	173.7213	44.5700	24	-232	219	100850	0.40 
152.706	-0.9443	0.0010	1.8867	-0.1221	-3.5400	0.0000	-6.8280	40.2100	172.7930	44.5900	22	-234	217	100850	0.40 
152.875	-0.9746	-0.0273	1.9146	-2.1973	-10.1929	0.9766	-6.5314	38.7708	171.8317	44.5800	19	-234	220	100850	0.40 
152.906	-0.9692	-0.0122	1.8867	-2.1362	-17.6392	-4.0894	-6.5094	36.5515	170.6946	44.5900	16	-233	213	100850	0.40 
153.075	-0.9399	-0.0181	1.8994	0.0000	-28.1372	-4.6997	-6.4160	33.7610	169.5630	44.6000	12	-233	212	100850	0.40 
153.232	-0.9248	-0.0459	1.8765	-3.7231	-47.8516	-13.0615	-6.5918	29.6521	168.3105	44.6000	2	-230	210	100850	0.40 
153.296	-0.8320	0.0171	1.9233	-1.0376	-65.8569	-18.0664	-7.3334	23.7085	166.5692	44.6100	-10	-231	196	100850	0.40 
153.427	-0.6411	-0.0220	1.6865	6.7749	-93.8110	-7.9346	-6.4490	15.5676	166.4758	44.6200	-29	-228	191	100851	0.40 
153.496	-0.5029	0.0229	1.7554	4.0283	-78.5522	-7.7515	-5.7074	8.5254	167.5635	44.6100	-57	-226	190	100851	0.40 
153.527	-0.4082	-0.0229	1.7061	7.2632	-78.3691	9.2773	-4.7076	1.2415	169.2938	44.6400	-85	-227	187	100851	0.40 
153.696	-0.1724	0.0313	1.4531	7.7515	-75.9888	1.0986	-4.1528	-5.9381	171.5625	44.6100	-111	-223	191	100851	0.39 
153.782	-0.0811	0.0591	1.3433	5.1880	-64.3311	-3.1128	-3.4167	-11.6675	173.7323	44.6300	-136	-225	199	100851	0.40 
153.923	-0.1201	0.0215	1.2085	7.8125	-44.6777	3.0518	-2.8070	-16.2817	176.2317	44.6100	-159	-235	200	100851	0.39 
154.096	-0.1929	0.0239	1.3730	2.5024	-22.3999	-0.2441	-2.3785	-18.3087	178.4509	44.6100	-172	-239	214	100852	0.39 
154.112	-0.1685	0.1509	1.3657	0.8545	-20.7520	14.4653	-1.9226	-19.5447	-179.0662	44.6200	-183	-236	217	100852	0.39 
154.159	-0.2671	0.0054	1.2471	-7.3242	-9.7656	6.2256	-2.7136	-20.7312	-175.4901	44.6200	-192	-233	221	100851	0.39 
154.346	-0.1313	0.0869	1.2241	1.7090	-3.7231	-2.4414	-2.5873	-21.1926	-173.7598	44.6100	-200	-233	223	100851	0.39 
154.471	-0.0439	0.0264	1.1655	2.5024	35.2173	-14.2822	-2.2577	-20.0116	-172.4304	44.6100	-200	-233	224	100851	0.39 
154.471	-0.0220	0.0239	1.1177	-0.1221	-11.2305	5.9814	-1.8951	-17.7539	-171.2439	44.6100	-195	-238	226	100851	0.40 
154.643	-0.1118	0.1167	1.2944	1.4648	-1.4038	-5.6763	-1.7194	-16.4355	-169.9860	44.6100	-194	-239	227	100851	0.40 
154.706	-0.0283	0.0444	1.1167	-0.7935	1.1597	0.6714	-1.6919	-15.8423	-168.3380	44.6000	-199	-240	226	100851	0.40 
154.737	-0.0356	0.0664	1.2031	-0.3662	0.0610	1.5259	-1.6315	-14.4965	-166.9373	44.6000	-195	-240	226	100851	0.40 
154.909	-0.0571	0.0557	1.2275	-0.7324	3.1738	2.1362	-1.6809	-13.2605	-165.4431	44.5900	-193	-239	227	100851	0.40 
155.050	-0.0591	0.0410	1.2148	-0.6714	-0.2441	0.6104	-1.6644	-12.2223	-164.1028	44.6100	-192	-242	226	100850	0.40 
155.112	-0.0479	0.0566	1.1987	-0.0610	-0.6714	-0.1831	-1.6095	-11.3599	-162.8888	44.6100	-191	-240	227	100850	0.40 
155.253	-0.0596	0.0522	1.2090	-0.1221	1.3428	1.1597	-1.5161	-10.4755	-161.7462	44.6000	-192	-237	226	100850	0.40 
155.284	-0.0596	0.0571	1.2251	0.0000	1.4038	-0.1221	-1.3953	-9.5361	-160.6860	44.6000	-194	-239	223	100850	0.40 
155.456	-0.0503	0.0459	1.2065	-0.5493	-0.3052	0.7324	-1.3129	-8.7781	-159.6588	44.6100	-194	-238	225	100850	0.40 
155.471	-0.0620	0.0562	1.2324	-0.1831	0.4883	1.2207	-1.2415	-7.9816	-158.6371	44.6100	-192	-237	223	100850	0.40 
155.690	-0.0596	0.0581	1.2134	-0.3052	1.0376	0.4883	-1.1426	-7.3608	-157.7197	44.6100	-194	-242	223	100850	0.40 
155.893	-0.0654	0.0605	1.2134	0.4272	1.3428	-2.3804	-1.0547	-6.7456	-156.9452	44.6200	-192	-238	224	100850	0.40 
156.081	-0.0215	0.0327	1.2100	2.0752	-3.9673	0.0610	-0.8350	-5.7458	-155.9894	44.6100	-194	-234	221	100850	0.40 
156.096	-0.1450	0.1011	1.2642	1.1597	-4.3335	-6.4087	-0.6317	-5.0317	-155.5444	44.6100	-195	-235	221	100850	0.40 
156.096	0.5356	-0.1211	0.8101	-4.5166	-26.2451	1.2207	-0.5823	-7.5311	-153.9020	44.6200	-197	-238	226	100850	0.40 
156.143	0.0483	0.1274	1.2104	-0.3662	51.5137	-17.6392	-0.5383	-3.2849	-154.7919	44.6100	-187	-240	225	100850	0.40 
156.268	-0.0122	0.1382	1.1914	-0.8545	57.6782	-15.5640	-0.8899	2.0874	-155.7477	44.6000	-172	-238	216	100850	0.40 
156.346	-0.1357	0.2285	1.4785	-1.1597	73.4253	10.9253	-0.7031	9.1241	-155.8466	44.6100	-150	-240	211	100850	0.40 
156.503	-0.2012	-0.0586	1.6079	1.8311	80.0171	14.7705	-0.1483	16.2982	-153.9075	44.6100	-130	-236	204	100850	0.40 
156.550	-0.3560	0.0620	1.6675	-2.9297	78.7964	2.6245	0.1483	23.3075	-154.0009	44.6000	-107	-239	200	100849	0.40 
156.768	-0.5366	0.0469	1.7168	-2.8076	74.2798	-1.5869	-0.1703	30.3058	-154.9731	44.6000	-85	-237	197	100849	0.40 
156.768	-0.6343	0.0752	1.7886	-5.4321	66.1621	2.9297	-0.7581	36.3428	-156.7090	44.6100	-55	-240	200	100849	0.40 
156.925	-0.7173	0.0288	1.8120	-3.2959	57.6172	-5.7983	-1.8292	41.2976	-159.1479	44.6200	-31	-239	203	100849	0.40 
156.956	-0.8901	0.0073	1.9766	-4.2114	55.7251	-10.9863	-3.0927	45.9393	-162.2571	44.6000	-13	-239	207	100849	0.40 
157.122	-0.9595	0.0239	1.8271	-6.4087	39.8560	-5.4321	-5.3009	49.1583	-166.5363	44.6000	7	-239	214	100848	0.40 
157.281	-1.0103	0.0259	1.8979	-4.3335	27.4658	-2.7466	-6.7621	51.1963	-170.0903	44.6000	22	-235	218	100849	0.40 
157.359	-1.0435	0.0356	1.9072	-4.8828	14.2212	-1.1597	-7.8882	51.6742	-173.2654	44.6200	29	-231	220	100848	0.40 
157.375	-1.0195	0.0015	1.9004	-4.5166	9.0942	4.2114	-8.2562	51.2622	-175.4901	44.6000	35	-230	221	100848	0.40 
157.531	-0.9941	-0.0234	1.8892	-2.9907	4.5166	-1.1597	-8.6298	50.3174	-177.6654	44.6000	36	-228	223	100848	0.40 
157.734	-1.0332	0.0034	1.8452	-2.0752	1.2817	-4.0283	-9.4043	49.3066	179.3628	44.5800	39	-231	224	100848	0.40 
157.765	-1.0444	-0.0254	1.8867	-1.4648	1.0986	-2.1973	-9.7778	48.2520	176.9238	44.6100	41	-228	224	100848	0.40 
157.765	-1.0103	-0.0254	1.8945	-1.6479	1.6479	0.2441	-9.7723	47.0599	175.0342	44.6000	41	-228	224	100848	0.40 
157.922	-1.0322	-0.0171	1.8862	0.1221	2.2583	-0.1831	-9.6515	46.1206	173.2050	44.6100	41	-226	225	100848	0.40 
158.094	-1.0405	-0.0205	1.8716	0.7935	1.0376	-0.3052	-9.3219	45.2087	171.5460	44.6100	40	-226	223	100848	0.40 
158.156	-1.0400	-0.0132	1.8745	0.7324	-0.1221	-0.6104	-8.9923	44.2859	169.9969	44.6200	44	-226	224	100848	0.40 
158.281	-1.0288	-0.0122	1.8745	0.3662	-0.8545	-1.7090	-8.6792	43.2806	168.5358	44.6300	44	-228	222	100848	0.40 
158.359	-1.0371	-0.0122	1.8789	0.0000	-1.1597	-0.3662	-8.3881	42.2864	167.1185	44.6300	47	-226	225	100848	0.40 
158.390	-1.0391	-0.0117	1.8867	0.1831	-1.1597	0.4272	-8.0475	41.3251	165.8551	44.6300	47	-225	225	100847	0.40 
158.562	-1.0425	0.0020	1.9004	0.3662	-3.6011	-0.2441	-7.6245	40.3253	164.8224	44.6300	42	-228	226	100848	0.40 
158.703	-1.0166	-0.0068	1.8848	0.1831	-3.7842	0.2441	-7.1796	39.1937	163.9105	44.6300	42	-228	223	100848	0.40 
158.797	-1.0146	-0.0059	1.8945	-0.1221	-3.6011	-1.0986	-6.8390	38.2050	162.9932	44.6500	41	-228	225	100848	0.40 
158.922	-1.0146	-0.0039	1.8794	0.1221	-3.7231	-1.2817	-6.5698	37.1997	162.0593	44.6500	39	-229	220	100847	0.40 
158.969	-0.9976	0.0063	1.8940	-0.0610	-3.9063	0.9155	-6.1908	36.2988	161.3342	44.6500	40	-227	225	100848	0.40 
159.154	-1.0547	-0.0220	1.9102	2.1362	-13.7939	1.8921	-5.6689	35.0958	160.8453	44.6600	36	-225	220	100847	0.40 
159.217	-1.0532	0.0010	1.9146	2.0752	-34.4238	0.7324	-4.9988	32.3932	160.4993	44.6500	31	-226	218	100847	0.40 
159.342	-0.9756	0.0166	1.9385	0.7324	-58.1055	5.1880	-4.1528	27.6691	160.8838	44.6500	16	-230	215	100847	0.40 
159.388	-0.8853	-0.0537	1.9185	8.1787	-92.3462	-7.1411	-3.4113	20.2478	160.9442	44.6600	-2	-228	203	100847	0.40 
159.529	-0.6660	0.0947	1.6885	8.6670	-95.2759	8.4229	-2.4060	10.8710	160.9552	44.6600	-33	-228	198	100847	0.40 
159.592	-0.5640	0.0352	1.7197	4.6997	-96.8018	17.5171	-1.6589	2.3950	163.6633	44.6600	-65	-229	192	100848	0.40 
159.779	-0.3457	0.0073	1.5161	-1.7090	-100.9521	18.8599	-1.5930	-6.5204	166.9153	44.6700	-103	-226	191	100848	0.40 
159.810	-0.1055	-0.0850	1.4316	5.9204	-92.1021	-4.2725	-2.1808	-14.6503	170.7495	44.6600	-140	-230	198	100848	0.40 
159.935	0.0278	-0.0522	1.1499	1.1597	-70.9839	-11.9629	-2.5983	-21.9012	173.6609	44.6500	-170	-231	203	100848	0.40 
160.138	0.1006	0.0557	1.0171	1.6479	-41.4429	9.0942	-2.9553	-26.6638	176.4075	44.6600	-192	-231	215	100848	0.40 
160.201	0.0542	0.0459	0.8770	11.0474	-2.3804	-13.7939	-3.2904	-28.7677	179.6979	44.6500	-204	-230	223	100848	0.40 
160.201	0.0723	0.0420	1.0015	3.9673	-15.2588	-15.3198	-2.6477	-27.1802	-178.6432	44.6600	-205	-236	229	100848	0.40 
160.388	-0.1284	0.0156	1.1987	1.7700	-8.7280	-2.0142	-2.4225	-24.6313	-177.2864	44.6700	-207	-237	230	100848	0.40 
160.420	-0.0977	0.0586	1.2363	1.9531	9.3994	-4.3945	-2.2577	-22.8076	-175.6165	44.6800	-207	-236	230	100848	0.40 
160.545	-0.0229	0.0464	1.1758	0.5493	1.4038	0.0610	-2.2742	-20.9674	-173.7323	44.6600	-199	-238	229	100848	0.40 
160.623	-0.0586	0.0552	1.2227	-0.0610	0.0000	0.8545	-2.3181	-19.3579	-171.9745	44.6700	-200	-238	228	100848	0.40 
160.826	-0.0483	0.0522	1.2017	-0.2441	1.8921	0.6714	-2.4280	-18.0450	-170.1563	44.6300	-202	-236	227	100848	0.40 
160.888	-0.0513	0.0361	1.1997	0.0000	2.5635	0.4883	-2.4994	-16.6333	-168.3984	44.6500	-200	-235	229	100848	0.40 
161.013	-0.0557	0.0293	1.2168	-0.1221	1.2817	1.1597	-2.5433	-15.2710	-166.7065	44.6500	-200	-236	228	100848	0.40 
161.013	-0.0513	0.0356	1.2114	-0.3052	0.1831	0.1221	-2.5488	-14.1724	-165.2399	44.6400	-198	-239	226	100848	0.40 
161.176	-0.0566	0.0366	1.1963	-0.4272	0.7935	-0.1831	-2.5214	-13.2056	-163.9270	44.6300	-196	-237	228	100848	0.40 
161.207	-0.0493	0.0322	1.2168	0.1221	-1.0986	1.4038	-2.4445	-12.1783	-162.6746	44.6500	-199	-240	224	100848	0.40 
161.379	-0.0605	0.0356	1.2300	-0.1831	1.6479	1.0986	-2.3840	-11.1896	-161.4386	44.6500	-199	-240	226	100848	0.40 
161.442	-0.0488	0.0264	1.2124	-0.4272	-0.8545	-1.4648	-2.3126	-10.4425	-160.3345	44.6400	-199	-238	226	100848	0.40 
161.598	-0.0522	0.0352	1.2065	-0.3662	-1.3428	0.2441	-2.2137	-9.7943	-159.3182	44.6400	-198	-235	226	100847	0.40 
161.629	-0.0542	0.0430	1.2144	0.0000	-0.3052	-0.3662	-2.0984	-9.1132	-158.3569	44.6300	-199	-240	226	100848	0.40 
161.785	-0.0557	0.0293	1.2148	-0.2441	-2.3804	-0.8545	-1.9995	-8.5419	-157.4451	44.6400	-199	-238	228	100848	0.40 
161.848	-0.0596	0.0332	1.2070	0.0000	-2.3804	-1.5869	-1.8567	-8.1573	-156.6870	44.6200	-200	-238	228	100847	0.40 
161.989	-0.0513	0.0337	1.2041	0.0000	-0.9155	-0.7324	-1.7358	-7.7069	-155.8960	44.6100	-200	-238	229	100847	0.40 
162.051	-0.0767	0.0410	1.2036	-0.9155	-0.4272	-0.1831	-1.6040	-7.2400	-155.1984	44.6200	-201	-238	229	100847	0.40 
162.223	-0.0293	0.0439	1.2002	-1.0986	-4.3945	0.6714	-1.5546	-6.8719	-154.4513	44.6300	-197	-237	231	100847	0.40 
162.254	-0.1538	0.0967	1.2778	-2.1362	2.4414	8.2397	-1.3788	-6.5753	-154.0173	44.6100	-198	-239	229	100848	0.40 
162.395	-0.1011	0.0142	1.0430	-1.1597	16.7847	-1.2207	-1.5161	-6.8225	-152.6550	44.6300	-200	-237	231	100848	0.40 
162.473	-0.1689	-0.0742	1.3223	-10.6201	-9.8877	13.0615	-1.4557	-4.4824	-151.8640	44.6100	-202	-234	230	100848	0.40 
162.614	0.0469	0.1890	1.0566	-2.1362	40.1001	-9.6436	-1.8677	-5.4712	-151.3861	44.6100	-204	-238	226	100848	0.40 
162.676	0.0396	-0.0215	1.0229	-2.4414	48.7671	-0.6714	-2.4445	-1.3184	-151.3696	44.6100	-193	-236	221	100848	0.40 
162.801	-0.1553	-0.0688	1.4272	-4.6997	72.3877	1.2207	-2.4774	5.8777	-150.9686	44.6100	-179	-237	208	100848	0.40 
162.973	-0.2764	0.0151	1.3979	-2.2583	69.3359	16.7236	-2.6038	12.6068	-150.7324	44.6100	-154	-234	203	100848	0.40 
163.051	-0.4590	-0.0093	1.4990	1.8311	68.8477	-1.6479	-2.6367	20.0940	-150.7489	44.6100	-133	-230	195	100848	0.40 
163.176	-0.4985	-0.0029	1.6665	0.0000	74.0967	-7.6904	-2.8674	27.2736	-152.2266	44.6100	-104	-230	191	100848	0.40 
163.192	-0.5674	0.0269	1.7515	-2.6245	79.2847	-4.6997	-3.5486	34.2444	-154.4623	44.6200	-77	-230	190	100847	0.40 
163.380	-0.7153	-0.0010	1.7632	-6.4087	65.9180	1.0376	-4.4550	40.3033	-156.8903	44.6200	-47	-232	197	100847	0.40 
163.442	-0.8320	-0.0059	1.8945	-2.1973	68.4204	-9.2163	-6.0699	46.2140	-160.4883	44.6200	-20	-230	201	100848	0.40 
163.583	-0.9932	-0.0776	1.8701	-6.1646	56.9458	-12.8174	-8.5913	51.0480	-165.5640	44.6200	5	-231	207	100847	0.40 
163.614	-1.1240	0.0391	1.9355	-3.8452	44.2505	-6.4087	-11.9586	54.4867	-171.7273	44.6400	26	-225	215	100847	0.40 
163.786	-1.1167	-0.0508	1.9102	-4.3945	29.1138	2.3804	-13.2385	56.3434	-175.5725	44.6300	43	-224	223	100848	0.40 
163.864	-1.1172	-0.0103	1.8867	-1.0376	16.9067	1.0986	-14.3042	56.6949	-179.1266	44.6300	50	-225	227	100848	0.40 
163.989	-1.1494	-0.0171	1.8921	1.2817	-2.2583	4.7607	-14.0021	55.8875	178.4619	44.6100	54	-226	233	100847	0.40 
164.083	-1.1118	-0.0356	1.8682	-0.5493	0.9766	8.0566	-12.6672	54.3658	177.4786	44.6300	57	-227	231	100847	0.40 
164.192	-1.0942	-0.0112	1.8594	0.4883	-3.5400	0.6714	-12.0959	52.6849	175.8636	44.6400	53	-227	229	100847	0.40 
