5
StartTime: 2017-07-11 15:23:39.304
Time(s)	ax(g)	ay(g)	az(g)	wx(deg/s)	wy(deg/s)	wz(deg/s)	AngleX(deg)	AngleY(deg)	AngleZ(deg)	T(°)	hx	hy	hz	Pressure(Pa)	Altitude(m) 
6.342	-1.0654	-0.0718	1.8682	-0.4272	1.4648	2.8076	-2.7521	29.4489	-132.6544	43.4800	-244	-93	248	100853	0.39 
6.498	-1.0820	-0.0928	1.8789	0.1221	0.7935	1.2207	-2.6422	29.5972	-132.4347	43.4600	-244	-93	245	100853	0.39 
6.779	-1.0537	-0.0566	1.8794	5.6152	4.8828	-3.0518	-2.4664	29.8169	-132.6215	43.4600	-242	-91	245	100853	0.39 
6.857	-1.0801	-0.0483	1.8936	0.3052	2.5024	7.7515	-1.9336	30.1465	-132.4292	43.4600	-240	-91	242	100854	0.39 
6.982	-1.0796	-0.0801	1.8652	-2.5024	-2.5635	6.5308	-1.6370	30.0531	-131.6492	43.4600	-244	-90	239	100853	0.39 
7.029	-1.0742	-0.0928	1.8677	-2.7466	-2.6855	4.9438	-1.6315	29.8004	-131.1108	43.4600	-245	-92	242	100853	0.39 
7.139	-1.0776	-0.0605	1.8818	-1.2207	-2.6855	-0.7935	-1.7084	29.5642	-131.1053	43.4600	-245	-89	246	100853	0.39 
7.295	-1.0557	-0.0557	1.8779	-0.8545	-2.3193	0.6104	-1.8018	29.3170	-131.2097	43.4500	-246	-91	245	100853	0.39 
7.295	-1.0581	-0.0752	1.8857	-0.4883	-3.1738	-0.6714	-1.8567	29.0643	-131.0449	43.4700	-250	-92	245	100853	0.39 
7.326	-1.0527	-0.0630	1.8799	0.0000	-3.0518	-3.2349	-2.0270	28.7183	-131.3525	43.4800	-247	-90	245	100853	0.39 
7.389	-1.0479	-0.0566	1.8706	-0.8545	-2.9297	-1.2207	-2.2028	28.4216	-131.6162	43.4600	-246	-88	245	100853	0.39 
7.514	-1.0469	-0.0483	1.8774	-0.1831	-2.1362	-2.0142	-2.3071	28.2349	-131.7755	43.4900	-245	-90	246	100853	0.39 
7.592	-1.0396	-0.0723	1.8765	-0.7324	-0.7324	1.1597	-2.3566	28.1030	-131.7700	43.4800	-247	-91	248	100853	0.39 
7.795	-1.0415	-0.0654	1.8794	0.0000	-1.0986	0.0000	-2.3456	28.0426	-131.7206	43.4900	-247	-92	251	100853	0.39 
7.795	-1.0444	-0.0645	1.8677	0.1831	-0.4883	-0.4272	-2.3236	28.0151	-131.7371	43.4700	-250	-92	251	100853	0.39 
7.998	-1.0361	-0.0562	1.8765	0.0000	0.4272	0.0610	-2.2852	28.0920	-131.7041	43.4700	-250	-91	247	100853	0.39 
8.186	-1.0464	-0.0679	1.8809	0.1221	1.1597	-0.3662	-2.2632	28.2074	-131.6162	43.4700	-248	-91	249	100852	0.39 
8.311	-1.0586	-0.0649	1.8706	0.7935	2.8687	-0.3052	-2.2137	28.4381	-131.5942	43.4800	-248	-90	250	100853	0.39 
8.311	-1.0972	-0.0571	1.8760	1.1597	7.0801	-1.4038	-2.1478	29.0204	-131.7645	43.4900	-245	-93	248	100853	0.39 
8.358	-1.1660	-0.1016	1.8013	-4.6387	17.7002	-1.7090	-2.3950	30.1465	-132.2479	43.4800	-242	-92	245	100853	0.39 
8.514	-1.2271	-0.0122	1.7012	-3.6011	38.6353	-6.8970	-3.2684	33.2831	-133.8574	43.5000	-240	-93	239	100852	0.39 
8.545	-1.2383	-0.0454	1.5044	-7.9346	62.7441	5.9814	-3.4113	38.8861	-134.8187	43.5000	-231	-91	225	100852	0.39 
8.748	-1.3481	0.0483	1.6113	-2.4414	85.3882	20.6909	-3.2794	45.9613	-136.0986	43.4900	-211	-92	213	100852	0.39 
8.779	-1.4067	-0.3237	1.7383	-5.0659	48.5229	-3.8452	-2.5214	51.8939	-135.3735	43.4900	-190	-84	199	100852	0.39 
8.951	-1.3853	-0.1030	1.7432	-5.7373	-0.5493	-1.7090	-3.7463	52.7673	-138.2025	43.5100	-179	-82	192	100853	0.39 
9.014	-1.6807	-0.0039	1.9814	0.4272	-9.3384	-1.4648	-5.3448	51.5533	-141.5698	43.5100	-179	-81	192	100854	0.39 
9.373	-1.5977	-0.1387	2.0195	8.7280	-38.6353	-8.9722	-5.5426	47.9333	-143.3496	43.5000	-190	-80	196	100855	0.39 
9.373	-1.5366	-0.0630	2.0391	15.7471	-48.4619	-17.8833	-5.4547	42.4292	-145.8160	43.5100	-203	-85	204	100855	0.39 
9.420	-1.1138	-0.1714	2.0674	16.4795	-65.4297	-12.5122	-4.4495	35.1343	-146.3763	43.4900	-223	-93	208	100856	0.39 
9.420	-0.8896	-0.0190	1.6758	-3.3569	-57.4341	-1.0986	-3.8837	28.4711	-145.6073	43.5200	-240	-94	229	100856	0.39 
9.565	-0.9561	0.0288	1.8936	0.4883	-32.2876	5.1880	-3.8342	24.4116	-144.1296	43.4700	-256	-94	241	100857	0.39 
9.612	-0.9229	-0.0444	1.8979	7.4463	-31.9214	5.0049	-2.8619	21.1981	-142.3389	43.4800	-263	-94	254	100857	0.39 
9.784	-0.9126	-0.0684	1.8540	6.8359	-16.1743	0.6104	-1.9995	19.1382	-141.0809	43.4600	-267	-95	262	100858	0.39 
9.815	-0.8955	-0.0596	1.8589	-4.5776	-8.7891	-2.0752	-2.1643	18.5065	-140.3998	43.4800	-271	-98	266	100858	0.39 
9.987	-0.8872	-0.0649	1.8677	-2.6245	-4.6997	1.3428	-2.6202	18.3691	-139.3671	43.4600	-274	-94	268	100858	0.39 
10.424	-0.8882	-0.0601	1.8613	-2.0142	0.1221	0.6714	-2.8180	18.4680	-138.3069	43.4500	-274	-91	269	100859	0.39 
10.424	-0.8950	-0.0620	1.8779	-2.8687	3.8452	-1.7700	-3.0817	19.0283	-137.4664	43.4800	-270	-95	271	100858	0.39 
10.424	-0.9028	-0.0425	1.8755	-2.6245	7.2021	-3.1738	-3.4222	19.9402	-137.0435	43.4600	-271	-93	266	100858	0.39 
10.659	-0.8906	-0.0801	1.8623	-2.0142	17.3950	0.3662	-3.6145	21.4783	-136.3678	43.4500	-271	-95	264	100859	0.39 
10.659	-0.8940	-0.0957	1.8403	-4.0283	25.0854	-2.3193	-3.9386	23.6810	-135.8789	43.4500	-269	-95	265	100859	0.39 
10.737	-0.9434	-0.0801	1.7339	-12.0239	43.9453	-3.6621	-4.8615	26.9495	-135.6042	43.4600	-267	-90	255	100858	0.39 
10.909	-1.0649	-0.0850	1.8232	-9.5825	67.0166	6.7749	-5.8722	32.7777	-136.0052	43.4800	-254	-93	240	100858	0.39 
11.377	-1.2183	-0.2036	2.2676	-6.8970	89.7217	7.8125	-6.6907	40.1990	-135.4889	43.4600	-237	-89	221	100858	0.39 
11.377	-1.4771	-0.2983	2.1821	-2.0142	39.5508	7.6294	-6.5863	46.6919	-135.4175	43.4300	-212	-85	204	100858	0.39 
11.393	-1.6753	-0.1108	2.0503	-0.2441	12.1460	-11.8408	-7.7673	48.1860	-137.9938	43.4400	-197	-86	198	100858	0.39 
11.565	-1.4639	-0.0684	1.9048	7.9956	-26.1841	-0.3662	-7.3499	46.9391	-139.6362	43.4100	-192	-86	198	100858	0.39 
11.565	-1.3750	-0.1431	1.7773	6.1035	-31.4941	6.4087	-6.1908	43.3960	-140.2954	43.3900	-197	-95	198	100857	0.39 
11.753	-1.2114	-0.2080	1.5430	8.2397	-66.6504	-16.4185	-5.2954	37.3041	-141.0370	43.3700	-209	-92	207	100857	0.39 
11.753	-1.2832	-0.0020	1.5703	16.1743	-50.4150	16.1743	-3.6310	31.2891	-141.8939	43.3500	-226	-99	221	100857	0.39 
11.753	-1.1362	0.0122	1.5752	3.4790	-26.3672	-2.9297	-2.8619	27.3944	-142.1136	43.3500	-236	-98	233	100856	0.39 
11.815	-1.1260	-0.1714	1.8765	-0.8545	-19.8364	-11.2305	-2.3730	25.8673	-141.7401	43.3500	-243	-99	244	100856	0.39 
11.940	-1.0923	0.0229	1.8828	0.0000	0.7324	-5.0659	-2.6697	25.4828	-142.5916	43.3500	-247	-102	248	100856	0.39 
11.987	-1.0430	-0.1021	1.8789	-0.3052	2.8076	0.4883	-2.4829	25.6201	-142.0367	43.3600	-246	-102	250	100856	0.39 
12.143	-1.0610	-0.0396	1.8677	-0.7935	-0.3052	-5.4932	-2.7850	26.0101	-142.4652	43.3700	-248	-105	249	100855	0.39 
12.206	-1.0430	-0.0713	1.8574	-3.1738	-2.1973	-0.8545	-2.9718	26.1310	-142.1796	43.3700	-250	-106	251	100855	0.39 
12.222	-1.0400	-0.0596	1.8711	-4.6387	-0.9766	0.5493	-3.3673	26.2463	-141.9708	43.4000	-249	-104	249	100854	0.39 
12.347	-1.0356	-0.0771	1.8770	-2.3804	1.7090	1.4648	-3.6255	26.4166	-141.4874	43.4000	-248	-104	248	100854	0.39 
12.472	-1.0464	-0.0522	1.8721	-0.7935	1.7700	1.8921	-3.6310	26.6858	-141.0315	43.4000	-249	-106	249	100854	0.39 
12.503	-1.0415	-0.0830	1.8838	-0.4272	2.0752	2.7466	-3.4772	27.0154	-140.4272	43.4100	-249	-105	251	100853	0.39 
12.628	-1.0522	-0.0801	1.8794	0.0000	2.3804	-1.0376	-3.4387	27.3505	-140.0922	43.4300	-247	-101	247	100853	0.39 
12.675	-1.0605	-0.0884	1.8594	-0.3052	2.0752	-0.1831	-3.4277	27.6636	-139.8669	43.4200	-249	-104	248	100853	0.39 
12.909	-1.0591	-0.0630	1.8857	2.5635	3.9673	-4.6387	-3.4222	28.1305	-139.8834	43.4500	-247	-102	244	100853	0.39 
13.050	-1.0874	-0.0479	1.8809	1.5869	3.2349	1.5869	-3.2025	28.4766	-139.8395	43.4300	-247	-107	243	100852	0.39 
13.112	-1.1025	-0.0688	1.8760	1.4038	3.0518	2.6855	-2.8564	28.8611	-139.3890	43.4600	-247	-105	246	100852	0.39 
13.206	-1.1548	-0.0796	1.8223	-0.5493	8.0566	4.6997	-2.5928	29.5258	-138.9056	43.4700	-241	-105	241	100852	0.39 
13.237	-1.1973	-0.0522	1.7725	-1.8921	26.6113	7.9956	-2.4115	31.4594	-138.7848	43.4600	-239	-102	238	100852	0.39 
13.268	-1.2378	-0.0356	1.5684	-1.8921	47.3633	14.1602	-1.8951	35.4639	-138.4772	43.4800	-234	-97	233	100852	0.39 
13.409	-1.2827	-0.0859	1.5654	1.5869	60.9131	-1.8921	-1.5601	40.8252	-139.1473	43.4800	-224	-96	218	100852	0.39 
13.487	-1.3291	-0.1606	1.5771	-6.1646	53.0396	17.7002	-0.9723	46.2250	-138.8562	43.4900	-200	-97	208	100853	0.39 
13.612	-1.4663	0.0088	1.6968	-6.4697	35.8276	19.2261	-1.7194	50.4547	-141.0150	43.4700	-192	-96	199	100853	0.39 
13.784	-1.5093	-0.1577	1.8413	-6.1035	11.5967	-20.9961	-2.3016	52.3389	-142.2290	43.4800	-180	-89	192	100854	0.39 
13.815	-1.6836	-0.0020	2.1748	-3.2349	-46.5088	11.0474	-3.7079	50.4163	-144.5471	43.4800	-182	-86	192	100854	0.39 
14.018	-1.5005	-0.0884	1.9014	0.0610	-65.1855	-5.9814	-4.2407	43.1104	-146.2225	43.4700	-197	-85	197	100855	0.39 
14.065	-1.0693	-0.1855	2.0522	9.7046	-89.9048	-10.3760	-4.3671	34.7003	-146.9641	43.4600	-222	-86	212	100856	0.39 
14.237	-0.8115	-0.0264	1.6216	3.5400	-88.9893	-8.5449	-4.1254	26.1200	-145.8984	43.4600	-246	-90	231	100856	0.39 
14.440	-0.8735	-0.0801	1.8726	8.3008	-26.4893	0.7324	-3.2245	21.5991	-144.3768	43.4600	-258	-96	247	100856	0.39 
14.508	-0.7817	-0.0103	1.7573	4.1504	-35.9497	2.6245	-2.7026	18.0231	-143.2343	43.4500	-269	-96	258	100857	0.39 
14.508	-0.8604	-0.0913	1.8359	3.1128	-12.7563	5.3101	-2.2412	16.5674	-141.2347	43.4700	-271	-95	271	100857	0.39 
14.696	-0.8657	-0.0269	1.8789	1.8921	0.9155	2.1362	-2.0490	16.4685	-140.0372	43.4400	-276	-95	276	100858	0.39 
14.696	-0.8398	-0.0835	1.8535	0.0000	0.6104	1.3428	-1.9720	16.9519	-138.7079	43.4400	-276	-94	275	100858	0.39 
14.868	-0.8765	-0.0688	1.8794	1.0376	1.3428	0.1221	-2.0435	17.5891	-137.6202	43.4300	-276	-94	269	100858	0.39 
15.039	-0.9028	-0.0552	1.8696	1.9531	5.7373	2.9297	-1.8347	18.4680	-136.5820	43.4300	-277	-92	273	100859	0.39 
15.086	-0.8872	-0.0591	1.8794	-0.9155	4.8828	0.6104	-1.8512	19.3195	-135.6207	43.4400	-276	-91	273	100859	0.39 
15.118	-0.9028	-0.0493	1.8789	0.3662	6.8359	1.5869	-1.8896	20.1599	-134.7693	43.4400	-274	-90	267	100859	0.39 
15.508	-0.9224	-0.0439	1.8813	3.4790	6.5918	4.5776	-1.6754	21.1102	-133.8849	43.4400	-271	-90	269	100859	0.39 
15.524	-0.9233	-0.0776	1.8706	2.9297	5.7373	3.4790	-1.1261	22.0331	-132.5940	43.4400	-272	-89	267	100860	0.39 
15.586	-0.9321	-0.0430	1.8862	0.1221	6.9580	2.8687	-0.9998	22.9065	-131.7535	43.4400	-271	-88	264	100860	0.39 
15.586	-0.9326	-0.0356	1.8589	4.5776	14.3433	2.1973	-0.6702	24.1150	-130.9790	43.4400	-267	-87	260	100860	0.39 
15.727	-0.9409	-0.0425	1.8628	1.1597	24.1699	-1.0376	-0.1868	26.0980	-130.4901	43.4300	-265	-90	253	100860	0.39 
15.790	-0.9702	-0.0054	1.8296	-5.0659	34.1797	-5.6152	-0.7361	28.8062	-130.8032	43.4400	-262	-91	248	100860	0.39 
15.993	-1.0386	0.0146	1.8232	-7.5073	49.3164	-1.5869	-1.6040	32.9590	-131.1438	43.4500	-253	-89	238	100860	0.39 
16.149	-1.1909	-0.0918	1.7993	-7.0801	75.9277	-9.2773	-2.7466	38.9520	-132.0502	43.4500	-238	-89	225	100860	0.39 
16.211	-1.9307	-0.1387	2.6782	-14.6484	93.8110	9.9487	-4.1858	47.5104	-133.1653	43.4500	-219	-89	209	100860	0.39 
16.383	-1.4819	-0.1104	2.0796	2.3193	34.2407	1.2207	-5.8502	49.1968	-135.3131	43.4500	-199	-87	198	100861	0.39 
16.446	-1.5674	-0.1333	2.1577	6.2866	-44.0674	-0.7324	-5.3174	47.8180	-136.8732	43.4500	-192	-88	196	100860	0.39 
16.635	-1.3584	-0.0913	1.6987	11.7188	-46.4478	-9.0942	-4.7461	42.0996	-138.6639	43.4100	-201	-93	202	100860	0.39 
16.713	-1.2373	-0.0293	1.5991	5.4932	-61.0352	-2.5024	-4.4824	37.0953	-140.2460	43.3800	-215	-96	211	100860	0.39 
16.885	-1.1060	-0.0454	1.4868	4.2725	-52.9785	-4.9438	-3.6584	31.8494	-140.6305	43.3500	-227	-98	222	100859	0.39 
16.963	-1.1196	-0.0723	1.4492	2.8687	-33.9966	-1.1597	-3.1201	27.9108	-141.5204	43.3400	-238	-96	234	100858	0.39 
17.119	-1.1348	0.0024	1.8008	4.5776	-13.4888	10.9863	-2.2137	26.2958	-141.7236	43.3500	-246	-102	243	100858	0.39 
17.135	-1.0581	0.0000	1.8579	0.3052	-4.9438	-12.0850	-2.2137	25.8179	-141.9928	43.3400	-249	-104	249	100857	0.39 
17.197	-1.0269	-0.0752	1.9028	-2.5024	-4.2725	9.2773	-2.0105	25.5377	-140.9601	43.3500	-250	-100	251	100857	0.39 
17.385	-1.0405	-0.0889	1.8657	-1.9531	-3.1128	-3.7842	-2.2247	25.1917	-140.6195	43.3600	-249	-106	255	100857	0.39 
17.447	-1.0117	-0.0479	1.8774	-3.3569	-0.6714	-1.1597	-2.5104	25.2026	-140.4108	43.3600	-252	-102	253	100856	0.39 
17.651	-1.0308	-0.0825	1.8701	-4.2725	2.7466	-0.7935	-2.9004	25.5103	-140.1141	43.3800	-255	-101	254	100856	0.39 
17.651	-1.0210	-0.0732	1.8857	-3.9673	5.6152	-0.0610	-3.2959	26.0980	-139.7955	43.3700	-253	-102	254	100856	0.39 
17.854	-1.0220	-0.0571	1.8848	-0.7935	5.1270	-5.1880	-3.7079	26.7407	-139.9329	43.3900	-248	-101	255	100855	0.39 
17.854	-1.0503	-0.0625	1.8770	0.3052	3.7842	-1.0986	-3.7683	27.2791	-139.9713	43.3900	-248	-104	256	100855	0.39 
17.916	-1.0449	-0.0566	1.8823	0.4272	3.2349	-1.4038	-3.7299	27.7295	-139.9438	43.4000	-247	-104	254	100855	0.39 
18.010	-1.0601	-0.0586	1.8833	0.0610	2.7466	0.8545	-3.6255	28.0920	-139.7406	43.4100	-248	-103	250	100855	0.39 
18.072	-1.0596	-0.0659	1.8809	-0.3662	2.5024	1.0376	-3.5101	28.4381	-139.5264	43.4100	-247	-106	246	100855	0.39 
18.182	-1.0581	-0.0645	1.8779	-1.0986	1.9531	0.9766	-3.4497	28.6908	-139.1528	43.4200	-245	-104	249	100855	0.39 
18.276	-1.0781	-0.0649	1.8799	-0.6714	0.4272	0.4272	-3.4277	28.8611	-138.9441	43.4200	-245	-101	245	100855	0.39 
18.307	-1.0620	-0.0874	1.8696	-0.4272	-1.0376	3.2349	-3.3014	28.8281	-138.5211	43.4400	-244	-101	243	100854	0.39 
18.338	-1.0688	-0.0723	1.8838	-0.0610	-0.3662	0.4883	-3.1641	28.8336	-138.0817	43.4300	-245	-101	245	100854	0.39 
18.541	-1.0801	-0.0986	1.8560	0.0000	-1.2207	-10.0708	-3.4167	28.7018	-138.3508	43.4300	-246	-99	241	100854	0.39 
18.776	-1.1563	-0.0513	1.7593	-0.5493	12.8784	-3.6011	-3.8013	29.3060	-139.3066	43.4400	-250	-108	242	100853	0.39 
18.916	-1.1133	-0.0107	1.5952	-4.6387	34.3018	13.1836	-3.6584	31.8823	-139.1364	43.4600	-248	-102	239	100853	0.39 
18.916	-1.1392	-0.1411	1.4673	-1.5259	67.6270	12.0850	-2.8894	37.3315	-137.9883	43.4400	-237	-98	229	100853	0.39 
18.963	-1.2764	-0.0654	1.7261	-7.9346	62.3169	5.0049	-3.9441	44.0442	-139.9548	43.4600	-215	-97	213	100852	0.39 
19.104	-1.5386	-0.1138	1.7871	-0.9766	56.8237	5.7373	-3.4332	49.1528	-139.7955	43.4400	-198	-93	205	100853	0.39 
19.151	-1.5352	-0.1719	1.8589	-6.8359	13.7939	0.3662	-4.0485	52.0258	-141.4545	43.4300	-184	-91	194	100853	0.39 
19.385	-1.7202	-0.0249	2.2012	-7.7515	-0.1221	-31.9214	-7.2894	52.2345	-146.4478	43.4400	-182	-90	190	100853	0.39 
19.542	-1.5957	-0.0718	2.0137	8.2397	-48.5840	4.3335	-7.0697	48.2904	-147.9474	43.4300	-190	-91	190	100854	0.39 
19.542	-1.3521	-0.1206	1.8667	11.5356	-67.8711	-0.3662	-5.3229	42.4841	-148.0353	43.4300	-201	-95	199	100855	0.39 
19.761	-1.3467	-0.0513	2.1309	0.2441	-55.2979	-1.7090	-4.0979	36.7273	-147.1893	43.4300	-224	-100	206	100855	0.39 
19.870	-1.0962	-0.0396	1.6816	-1.8921	-40.7715	7.5073	-3.6365	31.4758	-145.7446	43.4400	-238	-100	221	100856	0.39 
20.073	-1.1128	-0.0371	1.9097	6.3477	-23.7427	-5.6152	-3.2629	29.2841	-144.7559	43.4200	-246	-93	226	100856	0.39 
20.183	-1.0781	-0.0562	1.8379	4.8828	-10.8032	0.4272	-2.5269	27.6416	-143.8989	43.4300	-248	-97	232	100856	0.39 
20.448	-1.0952	-0.0874	1.8418	-0.8545	-0.4272	2.4414	-2.3621	27.3669	-143.3057	43.4400	-252	-96	237	100856	0.39 
20.464	-1.0918	-0.0566	1.8862	-4.2114	0.0000	2.9297	-2.5269	27.6306	-142.3883	43.4400	-252	-95	237	100856	0.39 
20.542	-1.1230	-0.0645	1.8916	-0.5493	6.1646	1.9531	-2.5269	28.1525	-141.4600	43.4400	-252	-93	233	100857	0.39 
20.683	-1.1055	-0.0337	1.8833	2.8687	0.7935	12.0850	-2.0874	28.6359	-140.4382	43.4300	-254	-92	236	100857	0.39 
20.683	-1.1274	-0.1172	1.8628	-0.3052	1.0986	-2.2583	-1.5656	28.8831	-138.8342	43.4500	-247	-91	233	100857	0.39 
20.683	-1.1406	-0.0430	1.8872	-0.2441	0.1831	3.9673	-1.7523	29.0698	-138.6859	43.4200	-249	-91	234	100857	0.39 
20.870	-1.1353	-0.0361	1.8862	1.7700	0.9766	-2.9907	-1.6699	29.1742	-138.4167	43.4200	-252	-93	233	100857	0.39 
20.870	-1.0903	-0.0620	1.8481	0.3052	-2.8076	-0.9766	-1.5930	29.0479	-138.0652	43.4100	-253	-94	232	100857	0.39 
20.933	-1.1099	-0.0537	1.8765	-0.7935	0.7324	1.0376	-1.6589	29.0753	-137.7905	43.4200	-251	-94	232	100857	0.39 
21.026	-1.1050	-0.0601	1.8770	-0.3662	2.3804	0.1221	-1.6644	29.2017	-137.3895	43.4300	-250	-93	233	100857	0.39 
21.167	-1.1001	-0.0557	1.8677	-2.5635	3.6011	0.0000	-1.8073	29.4873	-137.1368	43.4300	-253	-97	233	100857	0.39 
21.401	-1.1465	-0.0698	1.9033	-6.5918	3.0518	-6.8970	-2.4280	30.0037	-137.2357	43.4400	-252	-98	232	100858	0.39 
21.464	-0.8877	-0.1006	1.4150	-6.5308	27.8931	3.9673	-4.3835	29.3610	-138.7793	43.4400	-250	-96	230	100858	0.39 
21.794	-1.1289	-0.1216	1.9009	-6.2866	47.3633	-3.8452	-5.1855	34.5795	-138.0048	43.4300	-243	-93	226	100858	0.39 
21.888	-1.2632	-0.2026	2.1563	-10.5591	82.3364	12.3901	-5.6909	40.3748	-137.6587	43.4300	-229	-91	213	100858	0.39 
22.060	-1.5664	-0.0981	2.1294	-3.7842	29.7241	0.7324	-6.6522	47.4005	-138.7683	43.4300	-208	-90	200	100858	0.39 
22.060	-1.6582	-0.1890	1.9927	-1.9531	7.5073	-2.0752	-7.1411	48.3893	-140.1196	43.4000	-194	-88	194	100858	0.39 
22.341	-1.4106	-0.1240	1.7695	3.2959	-23.7427	10.9863	-7.0422	46.7413	-141.6357	43.3800	-184	-87	193	100858	0.39 
22.357	-1.4355	-0.0781	1.7495	0.4883	-33.9355	8.9722	-5.5206	43.6597	-141.4490	43.3400	-190	-89	194	100858	0.39 
22.357	-1.2339	-0.1196	1.5361	3.4180	-51.8799	17.7002	-3.6749	38.8696	-140.4547	43.3500	-201	-88	203	100857	0.39 
22.357	-1.2642	-0.1255	1.4834	10.6201	-45.7153	6.5918	-1.5765	34.2554	-139.9988	43.3000	-213	-87	212	100857	0.39 
22.435	-1.2568	0.0059	1.5615	5.9814	-21.7285	0.5493	-0.6921	31.0089	-141.1908	43.3300	-225	-88	220	100856	0.39 
22.622	-1.2310	-0.0327	1.9082	0.0610	-22.3389	-6.6528	-0.5603	29.7455	-141.9104	43.3300	-232	-90	227	100855	0.39 
22.638	-1.1943	-0.0811	1.8618	-0.4883	-15.5640	-7.7515	-0.9174	28.0591	-142.1136	43.3100	-236	-91	231	100855	0.39 
22.857	-1.1270	-0.0347	1.8667	-1.2817	-14.0991	5.3711	-1.1316	26.8671	-141.9598	43.3200	-242	-92	235	100854	0.39 
22.857	-1.1353	-0.0806	1.8398	-1.3428	-6.7139	0.6104	-1.1810	26.1310	-141.1578	43.3400	-242	-91	241	100854	0.39 
22.935	-1.0918	-0.0498	1.8691	-2.7466	1.2207	1.7090	-1.4063	26.3342	-140.6744	43.3400	-241	-92	237	100853	0.39 
23.091	-1.0981	-0.0757	1.8633	-2.8076	5.3711	-1.5869	-1.6479	26.8945	-140.1306	43.3400	-243	-90	240	100854	0.39 
23.122	-1.0933	-0.0786	1.8862	-2.3804	7.2021	-2.4414	-2.0874	27.7679	-140.0098	43.3500	-244	-90	239	100853	0.39 
23.216	-1.1167	-0.0630	1.8691	-1.1597	6.3477	1.0986	-2.3456	28.5480	-139.7626	43.3700	-241	-89	234	100853	0.39 
23.216	-1.1333	-0.0747	1.8813	-0.0610	5.1880	1.5259	-2.3126	29.2676	-139.2682	43.3600	-238	-92	236	100853	0.39 
23.372	-1.1411	-0.0913	1.8779	0.7935	2.7466	-2.3193	-2.3071	29.7400	-139.0485	43.3700	-238	-91	238	100853	0.39 
23.450	-1.1396	-0.0713	1.8809	-0.1831	0.0610	-1.3428	-2.4005	29.8993	-139.1089	43.3700	-238	-88	232	100853	0.39 
23.716	-1.1406	-0.0640	1.8770	-0.0610	-2.6245	-1.5869	-2.4445	29.8114	-139.0210	43.3900	-237	-90	234	100853	0.39 
23.903	-1.1421	-0.0693	1.8721	0.4883	-5.0659	-2.0142	-2.4994	29.4928	-139.0430	43.3900	-240	-90	239	100853	0.39 
23.903	-1.1377	-0.0688	1.8560	0.5493	-7.2632	0.6714	-2.4445	28.9380	-138.8287	43.4000	-239	-91	233	100853	0.39 
23.982	-1.1421	-0.0889	1.8652	-1.0986	-1.1597	3.3569	-2.2852	28.8226	-138.2135	43.4000	-240	-88	239	100852	0.39 
23.982	-1.1675	-0.0957	1.8525	-0.2441	1.8311	-5.1880	-2.4884	29.0698	-138.2355	43.4000	-242	-89	236	100852	0.39 
23.982	-1.1992	-0.0649	1.7700	0.0000	13.3667	-3.6011	-2.7740	29.9158	-138.9496	43.4000	-239	-91	236	100852	0.39 
24.232	-1.2124	-0.0063	1.5605	-1.5869	34.1187	10.8643	-2.5818	32.5854	-139.3341	43.4000	-236	-91	232	100852	0.39 
24.435	-1.1973	0.0137	1.4771	4.8218	57.0679	-11.4136	-2.6257	37.3480	-140.6854	43.4100	-229	-92	221	100852	0.39 
24.513	-1.3018	-0.2090	1.6138	-8.6060	54.5044	30.6396	-1.2030	43.0554	-138.6859	43.4000	-211	-91	212	100852	0.39 
24.513	-1.4614	-0.0337	1.8228	-3.1738	46.1426	0.9155	-2.1698	47.6257	-140.8118	43.4300	-197	-85	201	100852	0.39 
24.513	-1.5278	-0.0776	1.8394	1.8921	21.4844	-21.6675	-2.3785	50.2295	-142.3718	43.4200	-186	-88	196	100853	0.39 
24.748	-1.6265	-0.2466	2.1074	-3.2959	-25.5737	3.7231	-3.0103	49.7900	-144.2065	43.4200	-183	-85	190	100854	0.39 
24.888	-1.6265	-0.1025	2.0620	4.5166	-55.6641	-9.5825	-3.2959	44.8297	-145.6512	43.4200	-195	-82	193	100855	0.39 
