5
StartTime: 2017-07-11 15:23:39.304
Time(s)	ax(g)	ay(g)	az(g)	wx(deg/s)	wy(deg/s)	wz(deg/s)	AngleX(deg)	AngleY(deg)	AngleZ(deg)	T(°)	hx	hy	hz	Pressure(Pa)	Altitude(m) 
42.263	-1.1177	-0.0542	1.8740	0.8545	0.6104	-1.2817	-2.0764	30.5255	-140.0208	43.4400	-240	-101	232	100854	0.39 
42.617	-1.1226	-0.0425	1.8774	0.3052	2.0752	0.9766	-2.0215	30.6519	-139.9603	43.4800	-244	-101	231	100853	0.39 
42.648	-1.1060	-0.0601	1.8750	1.0376	3.3569	1.5259	-1.8512	30.9045	-139.5374	43.4700	-243	-102	238	100853	0.39 
42.648	-1.1226	-0.0610	1.8643	-0.0610	4.6997	-7.6904	-1.9830	31.2506	-139.6307	43.4600	-242	-102	236	100854	0.39 
42.749	-1.1489	-0.0083	1.8794	-2.0142	3.4790	0.6714	-2.3621	31.6956	-140.5646	43.4700	-237	-103	233	100854	0.39 
43.003	-1.1538	-0.0869	1.8740	-2.0142	4.0283	5.5542	-2.2852	32.0361	-139.9109	43.4800	-234	-106	232	100854	0.39 
43.065	-1.1621	-0.0708	1.8755	-0.4883	3.6621	1.1597	-2.2412	32.3602	-139.7900	43.4700	-232	-104	232	100854	0.39 
43.065	-1.1777	-0.0615	1.8813	-0.2441	-0.9766	-2.7466	-2.3346	32.4921	-140.0208	43.4700	-232	-104	230	100854	0.39 
43.065	-1.1685	-0.0972	1.8574	-2.4414	-0.4272	0.6714	-2.4829	32.2888	-140.1581	43.4700	-233	-104	231	100854	0.39 
43.181	-1.1763	-0.0527	1.8608	-1.1597	-2.8076	3.1128	-2.5159	32.0581	-140.2130	43.4700	-233	-101	229	100854	0.39 
43.335	-1.2012	-0.0542	1.8516	-2.0142	0.6104	2.1973	-2.4390	31.9812	-139.9988	43.4800	-234	-101	229	100854	0.39 
43.350	-1.1973	-0.0635	1.7612	-3.4790	9.5825	7.9956	-2.4774	32.5031	-139.9164	43.4600	-235	-99	228	100854	0.39 
43.482	-1.2539	-0.0786	1.7085	-2.6245	32.4097	5.4321	-2.3016	34.9420	-139.5264	43.4900	-234	-96	225	100854	0.39 
43.555	-1.2974	-0.0322	1.4424	-2.1973	51.4526	-12.2681	-2.9663	39.2761	-141.3666	43.4600	-221	-99	221	100854	0.39 
43.702	-1.2915	0.0117	1.4453	-0.1831	71.9604	11.5356	-3.6365	45.4065	-144.3988	43.4900	-207	-100	209	100854	0.39 
43.735	-1.4580	-0.0366	1.6626	-4.8828	47.7905	1.1597	-3.1036	51.1139	-144.3109	43.4900	-183	-97	196	100854	0.39 
44.051	-1.4199	-0.1636	1.8721	-11.1694	-20.8740	4.2725	-3.7189	51.9873	-145.2228	43.4900	-175	-90	191	100854	0.39 
44.192	-1.5884	-0.1255	1.9971	0.8545	-28.5645	-1.5259	-4.6143	48.5486	-147.0300	43.4800	-180	-90	191	100855	0.39 
44.254	-1.6045	-0.1484	2.0352	2.3804	-49.7437	-5.6763	-4.3616	43.6432	-147.6453	43.4700	-197	-89	199	100856	0.39 
44.254	-1.4458	-0.0703	2.0996	5.0049	-68.1152	-15.1367	-4.3616	37.1777	-148.5297	43.4700	-214	-92	208	100857	0.39 
44.364	-1.1499	-0.1235	2.1934	-0.7324	-62.4390	-8.9111	-3.8892	28.7183	-147.9858	43.4800	-237	-94	222	100857	0.39 
44.489	-0.7734	-0.0742	1.5884	3.7231	-59.5093	7.7515	-3.6255	21.4069	-146.4587	43.4600	-260	-95	241	100857	0.39 
44.551	-0.9175	-0.0557	2.0112	7.2021	-23.9868	-3.6011	-3.1256	18.4076	-145.0415	43.4700	-268	-93	256	100858	0.39 
44.708	-0.8228	-0.0532	1.7930	6.5308	-34.7290	2.1362	-2.5983	15.2161	-143.7451	43.4500	-275	-95	267	100859	0.39 
44.770	-0.9087	-0.0703	1.9141	1.2817	-13.1836	2.3193	-2.1698	14.2438	-141.8280	43.4600	-281	-96	277	100859	0.39 
44.864	-0.8447	-0.0752	1.8457	4.4556	-5.7983	2.2583	-1.8237	14.1174	-140.5316	43.4600	-281	-97	278	100859	0.39 
44.895	-0.7954	-0.0444	1.8462	1.0376	-4.2725	-0.6714	-1.6589	14.2822	-139.3121	43.4700	-282	-95	278	100859	0.39 
45.083	-0.8262	-0.0435	1.8594	-0.3052	0.4272	0.2441	-1.8457	14.7766	-138.2904	43.4400	-282	-95	282	100859	0.39 
45.161	-0.8223	-0.0576	1.8643	1.4038	1.2207	-2.1362	-1.8182	15.3918	-137.3621	43.4500	-282	-99	283	100859	0.39 
45.270	-0.8335	-0.0605	1.8550	-0.3662	2.6245	1.7090	-1.8567	15.9302	-136.5216	43.4700	-282	-99	282	100859	0.39 
45.364	-0.8379	-0.0410	1.8682	2.4414	1.2817	3.8452	-1.7194	16.5399	-135.5603	43.4800	-281	-98	279	100860	0.39 
45.473	-0.8105	-0.0557	1.8530	-0.9155	2.0752	1.3428	-1.6205	17.2266	-134.5001	43.4600	-280	-98	277	100859	0.39 
45.570	-0.7632	-0.0210	1.8140	-3.8452	17.7002	3.2349	-1.8347	18.4790	-133.6981	43.4600	-281	-96	277	100859	0.39 
45.726	-0.8262	-0.0903	1.7910	-4.3945	41.5039	-5.6152	-2.3236	21.8243	-132.9785	43.4600	-280	-94	274	100859	0.39 
45.788	-0.9048	-0.0454	1.7974	-11.1694	74.2798	-5.9204	-3.5101	27.5812	-133.3191	43.4400	-273	-96	255	100859	0.39 
45.929	-1.0195	-0.1182	1.8560	-10.8643	91.0645	-1.6479	-5.2240	35.5078	-134.0442	43.4800	-257	-95	238	100859	0.39 
45.991	-2.1021	0.2378	2.5381	-9.8267	67.5659	51.2695	-5.6744	45.7635	-133.6981	43.4400	-226	-91	214	100859	0.39 
46.195	-1.5854	-0.2402	2.0596	11.6577	17.1509	-3.1738	-6.5259	47.3730	-133.9893	43.4400	-206	-85	202	100860	0.39 
46.195	-1.4292	-0.1055	1.8647	10.3760	-37.7197	4.8218	-6.3776	46.2360	-135.5383	43.4300	-197	-89	198	100860	0.39 
46.382	-1.3594	-0.0537	1.8062	5.6152	-29.7241	2.9297	-4.7955	43.6212	-136.1206	43.3700	-206	-89	202	100859	0.39 
46.460	-1.2041	-0.0161	1.4150	-0.9155	-48.8281	13.1836	-3.1366	38.8037	-135.8954	43.3600	-212	-93	210	100859	0.39 
46.757	-1.2466	-0.0313	1.5308	-0.6714	-43.4570	25.7568	-1.4941	34.6014	-134.6704	43.3600	-225	-87	217	100859	0.39 
47.070	-1.2207	-0.1372	1.6348	0.0000	-22.9492	11.2915	-0.5164	31.4868	-133.1598	43.3300	-231	-83	229	100858	0.39 
47.398	-1.1421	-0.1650	1.8252	2.7466	-22.3389	-11.7188	-0.3680	29.5807	-133.2971	43.3400	-234	-83	234	100857	0.39 
47.585	-1.1152	-0.0327	1.8657	2.5024	-13.7329	-24.2920	-1.3129	28.0865	-135.2582	43.3500	-242	-87	238	100856	0.39 
47.695	-1.0796	-0.0645	1.8564	0.2441	-6.1646	-6.4087	-1.8347	27.3010	-136.7578	43.3600	-249	-91	244	100856	0.39 
47.960	-1.0664	-0.0820	1.8535	0.4883	0.0610	-15.3198	-2.4005	27.1692	-137.5763	43.3800	-249	-94	248	100856	0.39 
48.070	-1.0527	-0.0425	1.8799	-0.5493	1.4038	-6.6528	-2.8510	27.3779	-138.4882	43.3700	-248	-97	248	100855	0.39 
48.070	-1.0674	-0.0298	1.8706	-1.4038	3.7231	-3.1738	-3.0707	27.8284	-138.7518	43.3800	-245	-96	243	100855	0.39 
48.148	-1.0640	-0.0728	1.8672	-2.3193	2.0142	-1.2207	-3.3069	28.2129	-138.6035	43.4000	-249	-98	243	100855	0.39 
48.257	-1.0767	-0.0752	1.8789	-1.2817	2.3804	-0.8545	-3.5486	28.5370	-138.5156	43.3900	-246	-98	246	100855	0.39 
48.382	-1.0747	-0.0645	1.8789	0.3052	1.8311	-2.0752	-3.6090	28.8062	-138.4717	43.4000	-247	-97	241	100855	0.39 
48.382	-1.0835	-0.0703	1.8857	0.4272	2.3193	-1.4648	-3.5706	29.0698	-138.3453	43.3800	-247	-97	243	100855	0.39 
48.382	-1.0908	-0.0659	1.8760	0.7324	3.4180	1.0986	-3.4387	29.3610	-138.1421	43.4100	-243	-97	239	100855	0.39 
48.382	-1.0850	-0.0684	1.8745	1.2207	2.0142	3.1128	-3.1531	29.6796	-137.7136	43.4000	-245	-100	240	100855	0.39 
48.429	-1.1045	-0.0718	1.8696	0.9766	2.0752	2.1362	-2.8839	29.9103	-137.3126	43.4300	-246	-97	238	100855	0.39 
48.429	-1.1348	-0.0664	1.8662	0.7324	5.0659	3.9673	-2.6257	30.2838	-137.0215	43.4200	-240	-100	239	100855	0.39 
48.554	-1.2588	-0.0962	1.7295	-2.6855	22.0947	-8.4839	-2.8400	31.4813	-137.4554	43.4100	-243	-99	241	100855	0.39 
48.554	-1.2266	0.0898	1.6309	-7.5073	50.6592	26.1841	-2.7576	35.9033	-138.0542	43.4400	-231	-97	228	100855	0.39 
48.804	-1.3540	-0.3071	1.5938	-4.3945	62.2559	-34.3628	-2.7466	41.5393	-137.3566	43.4300	-220	-93	217	100855	0.39 
49.007	-1.2900	-0.0073	1.6045	-8.7891	37.8418	22.0947	-3.7903	47.0380	-139.9438	43.4300	-204	-91	206	100855	0.39 
49.007	-1.3555	0.0542	1.5957	2.9297	33.3252	3.1128	-4.2737	50.5975	-142.4432	43.4400	-188	-91	196	100855	0.39 
49.070	-1.4956	-0.1953	1.7637	2.0142	6.6528	5.1270	-2.8235	52.4377	-142.3114	43.4400	-178	-91	193	100855	0.39 
49.226	-1.6484	0.0054	1.9404	1.5259	-5.3711	6.8970	-2.9553	51.7950	-144.4427	43.4400	-176	-88	191	100856	0.39 
49.241	-1.6865	-0.1001	2.1636	-10.0098	-60.7300	-9.3384	-3.2025	47.8564	-145.8984	43.4300	-184	-87	191	100856	0.39 
49.429	-1.6118	-0.1362	1.9614	-0.7324	-54.6265	-4.6997	-4.1144	40.9735	-147.1234	43.4200	-202	-85	200	100856	0.39 
49.445	-1.1567	-0.0742	1.7637	9.2773	-92.2852	-1.6479	-3.6255	33.7500	-147.4915	43.4300	-224	-88	209	100857	0.39 
49.445	-0.9932	-0.1401	2.3462	2.9297	-75.5615	-17.3340	-3.1421	25.9113	-146.6345	43.4200	-249	-87	232	100858	0.39 
49.635	-0.6089	-0.0103	1.4468	-0.1831	-61.1572	3.6011	-3.6639	17.6715	-145.4590	43.4100	-267	-96	252	100857	0.39 
49.635	-0.8086	-0.0303	1.9766	8.4229	-21.3013	-5.1270	-3.1531	15.4193	-144.0692	43.4200	-275	-93	269	100857	0.39 
49.713	-0.7866	-0.0566	1.8125	3.1738	-13.3057	1.4648	-2.6038	13.3704	-142.8772	43.4100	-279	-96	279	100858	0.39 
49.713	-0.8423	-0.0566	1.9141	2.8687	-0.4272	-4.3945	-2.5543	13.3649	-141.8719	43.4100	-283	-97	280	100858	0.39 
49.838	-0.8389	-0.0234	1.8789	3.9063	0.3052	2.6855	-2.2028	13.8043	-140.8887	43.4000	-281	-100	285	100858	0.39 
49.901	-0.8433	-0.0732	1.8740	0.8545	1.2207	-2.4414	-2.0435	14.5844	-139.8669	43.4200	-280	-98	282	100858	0.39 
50.057	-0.8247	-0.0342	1.8643	1.4038	-0.5493	4.0283	-2.0325	15.2216	-138.9276	43.4100	-280	-100	282	100859	0.39 
50.120	-0.8428	-0.0322	1.8755	3.9063	2.0142	-0.0610	-1.7468	15.8038	-137.8894	43.4000	-283	-100	284	100859	0.39 
50.276	-0.8247	-0.0181	1.8604	0.7324	1.4648	0.1831	-1.4886	16.3971	-137.0490	43.4200	-279	-103	279	100859	0.39 
50.416	-0.8354	-0.0142	1.8730	0.7324	2.1973	2.1362	-1.4227	17.0618	-136.2854	43.3900	-280	-100	279	100859	0.39 
50.416	-0.8447	-0.0308	1.8726	-0.6714	2.0142	0.6714	-1.3733	17.5726	-135.5658	43.4100	-279	-102	279	100859	0.39 
50.620	-0.8438	-0.0313	1.8706	-1.8921	1.2207	-0.1221	-1.4886	18.1824	-134.8352	43.3900	-279	-99	280	100859	0.39 
50.620	-0.8638	-0.0278	1.8809	-1.3428	2.0142	1.5869	-1.6260	18.7262	-134.1266	43.4000	-280	-96	278	100859	0.39 
50.807	-0.8530	-0.0391	1.8711	-1.5259	2.5635	1.2817	-1.7358	19.2316	-133.4454	43.4000	-279	-99	277	100859	0.39 
50.870	-0.8540	-0.0459	1.8672	-1.4038	1.0376	0.6104	-1.8512	19.7205	-132.8302	43.4100	-280	-99	279	100859	0.39 
51.057	-0.8730	-0.0322	1.8896	-1.5869	2.0752	-0.0610	-2.0215	20.1709	-132.3578	43.4200	-282	-95	278	100859	0.39 
51.073	-0.8657	-0.0508	1.8696	-2.1973	2.0142	-1.4648	-2.2247	20.5939	-131.9678	43.4400	-277	-100	274	100859	0.39 
51.182	-0.8569	-0.0342	1.8799	-2.1362	1.0376	-0.9155	-2.3840	21.0443	-131.6492	43.4300	-277	-99	276	100859	0.39 
51.385	-0.8701	-0.0801	1.8853	-8.6670	2.4414	-4.6997	-2.9553	21.3904	-131.3800	43.4300	-279	-93	275	100859	0.39 
51.448	-0.7188	0.0088	1.7793	-1.4648	12.9395	2.5024	-3.4332	21.8134	-131.4240	43.4300	-281	-97	271	100859	0.39 
51.479	-0.8828	-0.1060	1.7822	-7.2632	38.8184	18.6157	-3.4497	24.6643	-129.8639	43.4300	-276	-95	270	100859	0.39 
51.579	-0.9395	-0.0527	1.8711	-7.2021	84.5337	5.2490	-3.7518	30.9485	-128.2874	43.4600	-268	-89	255	100859	0.39 
51.658	-1.1099	-0.1665	1.9795	-6.7139	88.3179	13.9771	-4.0375	38.7213	-127.6501	43.4600	-250	-87	231	100859	0.39 
51.861	-1.9673	-0.2666	2.1450	15.9302	38.0859	-2.9297	-5.0153	47.3401	-130.0397	43.4400	-227	-87	212	100859	0.39 
51.986	-1.6553	-0.0449	1.9688	28.2593	38.1470	-45.7764	-4.5264	49.7681	-133.1708	43.4500	-206	-91	203	100859	0.39 
52.048	-1.4912	-0.0469	1.9951	8.9111	8.3008	-20.4468	-5.4602	51.8939	-138.2190	43.4200	-190	-104	197	100859	0.39 
52.189	-1.3965	-0.0225	1.7637	4.7607	-17.0898	-3.4180	-5.9052	50.4877	-141.4874	43.3900	-189	-108	194	100859	0.39 
52.251	-1.3350	0.0068	1.5483	0.9155	-33.2642	6.0425	-4.9274	46.9336	-142.3169	43.3800	-188	-109	193	100858	0.39 
52.423	-1.3306	0.0195	1.6270	-1.4038	-37.7197	8.9722	-4.2188	43.2477	-142.7069	43.3600	-198	-110	200	100858	0.39 
52.611	-1.2622	-0.0552	1.5059	-0.1221	-29.1138	20.5688	-2.5214	39.2212	-141.9653	43.3400	-213	-111	210	100857	0.39 
52.798	-1.3599	-0.0342	1.7583	1.1597	-5.6152	7.2021	-1.7743	37.9303	-141.8610	43.3500	-217	-104	212	100857	0.39 
52.798	-1.2612	-0.0356	1.7754	-4.5776	-24.8413	12.1460	-0.9668	35.9363	-140.9930	43.3700	-223	-101	216	100856	0.39 
52.798	-1.2539	-0.0430	1.8716	-4.5776	-7.8735	8.5449	-0.7910	34.2444	-140.4877	43.3600	-225	-101	222	100855	0.39 
52.861	-1.2168	-0.0801	1.8335	0.4272	-3.2959	1.4648	-0.5054	33.5138	-139.6857	43.3800	-231	-97	225	100855	0.39 
52.986	-1.1558	0.0073	1.8896	3.6621	0.3052	-2.9297	-0.4010	33.3215	-140.2295	43.3600	-232	-97	228	100855	0.39 
53.095	-1.1943	-0.0327	1.8628	0.6714	-0.5493	-0.7324	-0.2802	33.1842	-140.4327	43.3800	-230	-98	230	100854	0.39 
53.189	-1.1963	-0.0088	1.8721	0.0610	0.0000	-4.1504	-0.4999	33.2446	-140.9821	43.3700	-230	-99	225	100854	0.39 
53.298	-1.1860	-0.0269	1.8564	-1.6479	-0.3052	0.6104	-0.6757	33.1512	-141.2402	43.3900	-230	-99	226	100854	0.39 
53.470	-1.1880	-0.0273	1.8613	-0.2441	1.0376	-0.8545	-0.8240	33.1677	-141.5918	43.4100	-231	-101	230	100854	0.39 
53.627	-1.1938	-0.0273	1.8589	0.0000	1.4038	-1.8311	-0.8899	33.2391	-141.8555	43.4200	-230	-100	226	100854	0.39 
53.705	-1.1885	-0.0137	1.8550	-0.7324	1.5259	-1.5259	-0.9998	33.3435	-142.1576	43.4300	-233	-101	229	100854	0.39 
53.705	-1.1978	-0.0225	1.8525	-1.0376	1.5869	0.8545	-1.0437	33.4314	-142.2180	43.4300	-229	-99	227	100854	0.39 
53.861	-1.1992	-0.0381	1.8662	-0.9766	0.4883	0.3662	-1.0876	33.5083	-142.2729	43.4400	-227	-98	226	100854	0.39 
54.017	-1.2490	-0.0527	1.8330	-0.3052	2.1973	-5.0049	-1.2744	33.6182	-142.6959	43.4600	-227	-97	225	100854	0.39 
54.080	-1.3047	0.0210	1.7988	-4.0894	11.2915	5.9204	-1.5216	34.5795	-143.4320	43.4300	-228	-99	226	100853	0.39 
54.236	-1.2935	-0.0220	1.7510	-5.1880	22.6440	1.9531	-1.7853	36.5131	-143.6133	43.4300	-226	-101	219	100853	0.39 
54.298	-1.3306	-0.1289	1.4917	-3.6621	43.9453	-3.1738	-1.9830	40.0781	-143.7836	43.4400	-217	-97	214	100853	0.39 
54.423	-1.3335	-0.0522	1.5254	-1.4038	63.1714	-2.3193	-3.3563	45.4065	-147.8101	43.4500	-202	-95	207	100853	0.39 
54.502	-1.3413	0.0186	1.5537	1.8311	44.2505	0.6104	-3.2794	50.0592	-149.2548	43.4400	-185	-98	194	100854	0.39 
54.627	-1.4766	0.0059	1.9194	-3.9673	25.1465	1.6479	-3.9001	53.4100	-151.6388	43.4300	-172	-100	188	100854	0.39 
54.720	-1.6479	-0.1118	1.8521	-5.1270	-4.8828	0.6714	-4.0594	52.8552	-152.8198	43.4300	-168	-96	185	100855	0.39 
54.830	-1.7617	-0.2393	2.0156	-3.3569	-61.5234	4.8828	-5.1416	48.7408	-154.4678	43.4400	-177	-94	187	100855	0.39 
54.892	-1.6289	-0.0444	1.9746	1.3428	-52.3682	-0.3662	-4.8120	42.4512	-154.8798	43.4500	-194	-91	195	100856	0.39 
55.017	-1.2178	-0.0840	1.8979	3.3569	-69.5190	-0.7324	-4.4440	36.0022	-154.0283	43.4400	-213	-94	204	100857	0.39 
55.111	-1.0547	-0.0762	1.8579	8.3008	-64.1479	-2.5024	-3.6090	29.0643	-152.5836	43.4400	-232	-93	218	100857	0.39 
55.252	-0.9067	-0.1338	1.6855	-1.7700	-37.2314	-10.5591	-3.3069	23.3405	-151.4355	43.4300	-253	-97	233	100857	0.39 
55.314	-0.9902	-0.0273	1.9375	-1.5259	-30.4565	-3.1128	-3.4882	20.3027	-150.4907	43.4200	-262	-100	245	100857	0.39 
55.533	-0.8687	-0.0811	1.8374	4.0283	-20.4468	2.2583	-3.0817	17.8363	-148.8318	43.4100	-268	-95	255	100857	0.39 
55.533	-0.9565	-0.0176	1.9087	6.2256	-10.4370	0.9766	-2.5159	17.0892	-147.4750	43.4100	-274	-99	262	100857	0.39 
55.673	-0.9150	-0.0083	1.8477	2.9907	-4.5166	3.9063	-2.0490	16.7926	-146.2170	43.4400	-277	-100	262	100858	0.39 
55.845	-0.9126	-0.0537	1.8696	0.4883	2.8687	1.5259	-1.9391	17.4353	-144.8383	43.4200	-270	-98	263	100858	0.39 
55.939	-0.9229	-0.0400	1.8896	1.7090	-0.1831	-0.0610	-1.8951	18.1000	-143.6957	43.4000	-271	-101	263	100859	0.39 
55.939	-0.9204	-0.0234	1.8599	0.6104	3.6621	-2.0752	-1.8182	18.7097	-142.9706	43.4100	-273	-101	267	100859	0.39 
56.080	-0.9424	-0.0366	1.8916	-1.2207	2.0752	-1.6479	-1.9556	19.4733	-142.3499	43.4100	-270	-101	265	100859	0.39 
56.142	-0.9302	-0.0293	1.8774	-0.2441	-0.7324	-0.9766	-2.0654	19.9457	-141.6138	43.4000	-271	-101	264	100859	0.39 
56.345	-0.9341	-0.0229	1.8828	0.6104	2.1362	4.1504	-1.9885	20.3906	-140.8063	43.4100	-273	-104	267	100859	0.39 
56.345	-0.9341	-0.0483	1.8750	-0.4883	2.6855	0.1221	-1.8842	20.9564	-139.7516	43.4100	-272	-101	263	100859	0.39 
56.486	-0.9419	-0.0225	1.8770	0.0000	0.3052	1.2817	-1.9336	21.3959	-139.0759	43.4000	-270	-101	263	100859	0.39 
56.548	-0.9619	-0.0112	1.8647	1.5259	1.7700	2.5024	-1.7139	21.8298	-138.2959	43.4000	-273	-98	263	100859	0.39 
56.723	-0.9365	-0.0586	1.8940	-0.2441	3.6011	0.9766	-1.5326	22.5165	-137.2961	43.4100	-274	-99	261	100859	0.39 
56.755	-0.9521	-0.0244	1.8794	-0.0610	1.5259	1.7090	-1.5326	23.0273	-136.6205	43.4100	-271	-99	261	100859	0.39 
56.942	-0.9600	-0.0093	1.8799	-0.5493	5.0659	1.4648	-1.4502	23.5327	-135.9998	43.4000	-270	-98	261	100859	0.39 
56.958	-0.9585	-0.0454	1.8726	-0.9155	6.1646	-0.7935	-1.5106	24.2633	-135.4559	43.4000	-269	-96	257	100859	0.39 
57.317	-0.9365	-0.0625	1.8613	-1.3428	-0.5493	-6.2256	-1.7743	24.7961	-135.2692	43.4000	-271	-96	255	100860	0.39 
57.395	-0.9336	-0.0566	1.8477	-6.5918	38.8184	-11.1694	-2.5873	26.9110	-135.6812	43.3900	-266	-99	251	100859	0.39 
57.505	-0.8975	0.0054	1.8213	-9.0942	69.4580	-2.3193	-3.8397	32.0471	-136.9006	43.4000	-261	-99	240	100860	0.39 
57.552	-1.1577	-0.1030	2.0269	-10.3149	106.6895	9.3994	-4.6802	40.0671	-136.9116	43.3900	-238	-101	222	100860	0.39 
57.567	-1.9585	-0.0801	2.2012	-9.7656	27.8931	-2.5024	-6.8610	49.1693	-139.5264	43.4100	-214	-99	202	100860	0.39 
57.661	-1.7808	-0.1445	1.9712	-1.1597	24.1089	-8.3618	-7.6190	50.8392	-141.2952	43.3900	-196	-98	195	100860	0.39 
57.755	-1.4927	-0.0918	1.7446	-4.4556	-2.0142	-5.8594	-8.4595	51.2128	-143.7012	43.3600	-183	-97	189	100860	0.39 
57.895	-1.3398	-0.1230	1.6299	0.0610	-9.6436	1.8311	-8.0255	50.2130	-145.1788	43.3400	-176	-97	191	100860	0.39 
57.958	-1.3149	-0.0718	1.5049	5.6152	-33.0811	3.8452	-6.5588	47.4500	-145.9973	43.3200	-180	-99	195	100859	0.39 
58.145	-1.3730	-0.0269	1.5640	6.8970	-31.7383	5.7983	-5.2020	43.7640	-146.7389	43.3000	-190	-99	194	100859	0.39 
58.177	-1.3047	-0.0254	1.4697	5.0659	-36.1938	6.5308	-3.8342	39.7375	-147.0410	43.3300	-201	-100	200	100858	0.39 
58.286	-1.4463	-0.0640	1.8960	3.6011	-19.2871	10.4980	-2.5488	37.8809	-146.8268	43.3200	-212	-100	210	100857	0.39 
58.380	-1.2300	-0.0186	1.7715	1.1597	-12.6953	1.0986	-1.5710	35.3815	-145.9094	43.3200	-216	-100	217	100857	0.39 
58.520	-1.2754	-0.0601	1.8149	-3.2959	-4.5776	13.5498	-1.1096	34.8926	-145.3436	43.3300	-221	-98	217	100857	0.39 
58.583	-1.2554	-0.0811	1.8643	-4.8828	-4.4556	4.8218	-1.0822	34.6509	-144.4757	43.3300	-220	-94	221	100856	0.39 
58.723	-1.2451	-0.0732	1.8540	-3.6621	-2.1362	3.4790	-1.3184	34.3213	-144.0033	43.3400	-221	-91	218	100856	0.39 
58.786	-1.2520	-0.0591	1.8618	-3.3569	2.0752	1.8921	-1.5271	34.1510	-143.6627	43.3300	-222	-91	216	100856	0.39 
58.911	-1.2461	-0.0664	1.8472	0.0000	0.4272	-2.5024	-1.8073	34.0631	-143.8275	43.3300	-220	-90	222	100856	0.39 
58.989	-1.2295	-0.0547	1.8433	1.6479	-1.8311	-3.7842	-1.9226	33.8544	-144.2670	43.3500	-223	-90	220	100856	0.39 
59.161	-1.2397	-0.0635	1.8447	1.2817	-0.3662	-4.4556	-1.9830	33.7335	-144.6954	43.3500	-225	-93	218	100856	0.39 
59.302	-1.2183	-0.0439	1.8604	1.4648	-1.7090	-3.1738	-2.0490	33.6017	-145.1074	43.3300	-225	-87	221	100855	0.39 
59.364	-1.2427	-0.0376	1.8291	1.4038	1.2817	-2.9297	-2.0105	33.5577	-145.2612	43.3500	-227	-94	219	100855	0.39 
59.505	-1.2168	-0.0435	1.8291	-0.4883	4.5166	-3.6011	-2.1094	33.9313	-145.4810	43.3600	-226	-94	221	100855	0.39 
59.536	-1.2744	-0.0415	1.8252	-1.8921	3.4790	-0.4272	-2.3621	34.4147	-145.7886	43.3700	-224	-96	221	100855	0.39 
59.709	-1.2900	-0.0674	1.8428	0.0000	3.2959	1.5259	-2.3236	34.8376	-145.7446	43.3500	-219	-93	220	100855	0.39 
59.740	-1.3003	-0.0601	1.8086	-0.3662	5.9814	-2.8687	-2.3511	35.2002	-145.9369	43.3500	-218	-97	218	100855	0.39 
59.927	-1.3584	-0.0825	1.6812	-0.1831	20.2637	1.8921	-2.4609	36.5460	-146.4917	43.3700	-217	-96	215	100855	0.39 
59.990	-1.3042	0.0303	1.6118	1.2207	30.7617	7.2632	-2.7191	39.0839	-147.9639	43.3800	-212	-97	214	100855	0.39 
60.130	-1.4165	-0.1626	1.5884	3.6011	52.4292	-10.1929	-2.1368	43.5773	-148.2440	43.3800	-202	-93	205	100855	0.39 
60.209	-1.3555	0.1343	1.6997	-1.3428	28.8696	11.7188	-3.5980	47.5323	-152.0618	43.3700	-186	-96	194	100855	0.39 
60.349	-1.4321	-0.0879	1.5259	3.4180	28.8086	-16.8457	-3.0652	49.8779	-153.0780	43.3800	-178	-99	190	100855	0.39 
60.412	-1.5117	-0.0337	1.7192	-5.6152	-2.3804	10.1318	-3.6145	51.2512	-154.8083	43.3800	-169	-100	186	100856	0.39 
60.537	-1.6665	0.0225	1.8599	-5.7983	-9.2773	3.6011	-4.2847	50.4492	-156.5826	43.3700	-169	-97	188	100857	0.39 
60.599	-1.7012	-0.0640	1.9688	3.4180	-26.6724	-2.5024	-4.6527	47.7081	-157.7692	43.3800	-173	-92	188	100857	0.39 
