StartTime: 2017-07-11 15:44:32.975
Time(s)	ax(g)	ay(g)	az(g)	wx(deg/s)	wy(deg/s)	wz(deg/s)	AngleX(deg)	AngleY(deg)	AngleZ(deg)	T(°)	hx	hy	hz	Pressure(Pa)	Altitude(m) 
54.431	-1.1821	-0.0557	1.8579	-1.5259	-0.9155	4.6387	-2.5269	31.8549	148.6670	44.1300	17	-276	262	100913	0.34 
54.603	-1.1841	-0.0840	1.8535	-1.1597	-2.0752	7.3242	-2.2137	31.8329	149.3756	44.1400	17	-277	265	100913	0.34 
54.650	-1.1812	-0.0771	1.8530	-0.6104	-0.4883	4.1504	-1.9061	31.8219	150.0348	44.1500	17	-273	261	100913	0.34 
54.806	-1.1797	-0.0815	1.8618	-0.4883	-0.6714	0.7324	-1.9171	31.8054	150.1392	44.1600	11	-273	260	100913	0.34 
54.884	-1.1646	-0.0635	1.8530	0.5493	-0.4883	-2.5024	-1.9830	31.7725	149.9524	44.1600	15	-276	263	100913	0.34 
55.072	-1.1782	-0.0601	1.8716	0.3052	-1.2817	-0.9766	-2.0270	31.8658	149.7382	44.1400	14	-276	259	100913	0.34 
55.072	-1.1914	-0.0439	1.8604	-0.6104	1.4038	-0.3052	-2.1423	31.8274	149.5514	44.1700	15	-277	261	100913	0.34 
55.213	-1.1724	-0.0596	1.8623	-0.1221	2.0142	-0.6714	-2.2137	31.9812	149.4965	44.1900	21	-275	262	100913	0.34 
55.291	-1.1978	-0.0283	1.8540	-0.6714	0.3052	-1.8311	-2.2742	32.0966	149.3646	44.1700	16	-277	260	100913	0.34 
55.385	-1.2041	-0.0986	1.8701	-5.9814	-6.6528	-3.6621	-2.6532	31.9318	149.2712	44.1900	15	-273	263	100914	0.34 
55.478	-1.1680	-0.0513	1.8354	-4.7607	-2.0142	-6.1646	-3.5321	31.3934	148.5077	44.1600	15	-271	259	100913	0.34 
55.604	-1.1694	-0.1177	1.8892	-8.3008	6.7139	-8.4839	-4.4769	31.5747	147.5684	44.2100	16	-270	257	100913	0.34 
55.682	-1.0522	-0.0762	1.8018	-6.7139	4.6387	4.1504	-4.7406	31.5857	147.8870	44.2000	15	-269	253	100913	0.34 
55.854	-1.1196	-0.1563	1.8359	-7.5073	-0.1831	12.6343	-4.1418	32.0197	150.0348	44.1700	13	-269	256	100913	0.34 
56.026	-1.0854	-0.1318	1.8848	-4.7607	0.1221	4.2725	-4.6527	32.2449	150.4413	44.1800	8	-269	254	100913	0.34 
56.057	-1.0864	-0.0898	1.8823	-3.7842	-2.0752	12.9395	-4.7900	32.0526	151.1554	44.1800	10	-267	252	100913	0.34 
56.104	-1.2300	-0.2222	1.9888	-8.1177	-0.1221	29.9683	-3.7079	32.2009	153.9075	44.2000	-1	-265	249	100913	0.34 
56.244	-1.2407	-0.1597	2.1895	6.1646	12.2070	16.1133	-2.5433	32.9645	156.0388	44.1800	-8	-270	253	100913	0.34 
56.432	-1.3081	-0.1240	1.8428	16.7847	6.6528	25.2686	0.0714	33.5138	158.4888	44.1800	-16	-272	251	100913	0.34 
56.479	-1.2373	-0.0938	1.7041	16.1133	7.1411	18.6157	3.0487	34.3048	161.5649	44.1600	-24	-276	253	100913	0.34 
56.604	-1.2070	0.0107	1.7197	8.1787	-6.8970	3.0518	4.1144	34.5355	162.0483	44.1400	-31	-275	257	100912	0.34 
56.682	-1.1963	-0.0532	1.6694	3.7842	8.0566	2.0752	5.2075	34.5245	162.8284	44.1100	-34	-277	254	100913	0.34 
56.807	-1.2881	0.0332	1.9736	11.7188	5.4932	-11.2915	5.5042	35.8209	161.5320	44.1200	-33	-278	258	100912	0.34 
56.885	-1.1719	0.0869	1.8496	5.9204	9.1553	-4.6387	5.7568	36.0077	160.7794	44.1100	-31	-277	266	100912	0.34 
57.041	-1.5112	0.1387	2.2451	-10.2539	40.4663	-20.3247	4.8724	38.2104	159.3512	44.1100	-23	-280	267	100911	0.34 
57.072	-1.3286	-0.2754	1.6528	-14.9536	-31.6772	-66.2231	0.8459	38.0457	155.0226	44.1000	-15	-276	267	100911	0.34 
57.229	-1.3701	0.1431	1.9116	-2.3804	15.6860	5.6763	-3.3344	38.1445	148.8922	44.0700	-2	-268	262	100911	0.34 
57.307	-1.1934	-0.2002	1.5264	-2.9907	-20.2637	-31.0059	-4.5209	36.2604	147.8210	44.0900	0	-265	263	100911	0.35 
57.479	-1.2847	-0.1196	1.7915	-12.0850	-2.9907	-1.3428	-6.2952	35.9088	145.9479	44.0900	3	-262	260	100910	0.35 
57.604	-1.1831	-0.1904	1.9067	-7.2021	-0.4883	-11.2305	-8.1299	35.2112	144.3878	44.1000	5	-259	257	100910	0.35 
57.698	-1.3154	-0.0757	1.9990	-4.0283	-12.0239	29.0527	-8.1409	34.3542	145.2942	44.1000	2	-255	257	100910	0.35 
57.698	-1.3306	0.1362	2.1299	9.3994	-15.0757	-2.3193	-7.1301	34.5740	146.5137	44.0900	-2	-259	253	100909	0.35 
57.870	-1.3491	-0.2754	1.6157	14.9536	30.4565	12.2070	-3.3838	33.6566	151.5674	44.0800	-12	-259	257	100909	0.35 
57.917	-1.2451	-0.0015	1.7241	16.4185	-15.2588	4.3945	-1.2854	34.5355	152.2321	44.0800	-17	-261	259	100908	0.35 
58.089	-1.2031	0.0210	1.8403	10.4370	10.1929	9.5825	0.2417	34.7992	153.4296	44.0600	-19	-269	262	100908	0.35 
58.214	-1.2007	-0.0293	1.7847	-10.8032	9.2773	12.4512	0.9393	35.0409	155.2753	44.0800	-25	-269	263	100908	0.35 
58.292	-1.1426	-0.0874	1.8809	-3.8452	-16.0522	7.5073	1.6150	34.9091	157.1814	44.0900	-32	-265	257	100907	0.35 
58.323	-1.5068	0.0796	2.2378	-10.4980	24.2310	-1.3428	0.6152	35.4089	156.8188	44.0900	-31	-268	258	100907	0.35 
58.495	-1.3984	-0.1636	1.4038	0.1831	-15.1367	-51.7578	-2.9224	34.6124	152.8033	44.0800	-32	-263	256	100907	0.35 
58.620	-1.2363	-0.0596	1.9131	-5.8594	0.7324	-15.9912	-4.3066	34.5190	149.6503	44.0800	-24	-257	256	100907	0.35 
58.698	-1.1221	-0.1499	1.4785	-0.1221	-3.9673	-7.6904	-4.8450	33.2721	149.1449	44.0600	-16	-257	256	100907	0.35 
58.854	-1.1543	-0.2388	1.8501	8.6670	5.8594	-29.2358	-6.0150	34.2499	146.2885	44.0400	-14	-256	259	100906	0.35 
58.901	-1.2349	-0.1177	1.9512	6.0425	10.6812	-21.4844	-6.7236	34.4147	143.9044	44.0500	-5	-255	261	100907	0.35 
59.073	-1.2583	-0.2563	1.9272	-6.7749	7.4463	16.2354	-6.9873	34.4586	144.0417	44.0500	-4	-255	263	100907	0.35 
59.120	-1.3877	-0.0913	1.9526	10.8032	-11.6577	32.9590	-5.9656	35.3101	145.5798	44.0500	-4	-253	265	100907	0.35 
59.245	-1.3325	-0.0205	1.5723	16.6626	19.2261	12.1460	-3.5156	34.9365	148.0133	44.0400	-9	-258	266	100907	0.35 
59.354	-1.2163	-0.0898	1.6860	8.1177	-14.7095	3.6621	-1.3403	35.6396	149.4141	44.0200	-8	-259	266	100906	0.35 
59.511	-1.2188	-0.0552	1.6626	0.6104	-5.6152	5.9204	-0.5823	35.0684	149.9030	44.0300	-11	-259	270	100907	0.35 
59.683	-1.2236	0.0488	1.8438	9.2773	6.0425	7.5073	0.7910	35.2496	150.9576	44.0300	-12	-266	268	100906	0.35 
59.730	-1.2446	-0.0063	1.8984	-1.0376	-6.2256	10.1318	2.1149	34.9530	152.7484	44.0400	-14	-263	275	100906	0.35 
59.745	-1.2686	0.1001	2.0620	-4.8218	-3.2349	-1.9531	1.4117	34.4696	152.7594	44.0500	-20	-263	273	100906	0.35 
59.902	-1.2349	-0.3633	1.8774	-6.5918	-32.7759	-21.4233	0.4614	34.2444	152.8857	44.0200	-22	-261	269	100906	0.35 
59.964	-1.4688	-0.0010	1.6831	-5.9204	22.6440	-2.8687	-0.7526	34.5905	150.0787	44.0300	-16	-262	269	100906	0.35 
60.105	-1.1938	-0.1060	1.6597	-10.7422	-27.2827	-13.2446	-2.7905	33.9862	148.4198	44.0100	-14	-262	266	100906	0.35 
60.245	-1.1953	-0.0005	1.6655	-11.1084	9.0942	-22.5220	-5.3119	33.3984	145.9204	44.0400	-11	-257	260	100905	0.35 
60.292	-1.1875	-0.1680	1.8257	-15.7471	5.2490	14.5264	-6.4160	34.1785	146.1621	44.0200	-6	-256	257	100905	0.35 
60.355	-1.3022	-0.1738	2.0688	-12.2070	7.6294	8.4839	-7.1960	34.6014	146.7938	44.0400	-9	-251	255	100905	0.35 
60.542	-1.3921	-0.3477	2.2339	0.7935	6.3477	5.2490	-6.4490	34.4366	148.8153	44.0400	-13	-251	256	100905	0.35 
60.730	-1.3096	0.0781	1.3252	3.1128	-32.4097	35.4004	-4.6252	32.8931	150.7764	44.0300	-17	-250	250	100905	0.35 
60.870	-1.3208	-0.1172	2.0884	10.2539	8.6060	5.5542	-2.1423	34.3872	152.9077	44.0300	-25	-253	251	100905	0.35 
60.933	-1.1558	0.0283	1.4478	10.9253	-6.7139	-3.1738	-1.1041	32.8217	152.5232	44.0200	-24	-257	252	100904	0.35 
60.933	-1.2324	-0.0688	1.9346	11.8408	-1.3428	5.7373	0.1263	33.7390	153.1494	44.0300	-28	-257	257	100903	0.35 
61.105	-1.1543	0.0317	1.8286	4.2725	3.7842	-11.5356	0.2252	33.1787	152.4847	44.0300	-28	-263	264	100903	0.35 
61.167	-1.0410	0.1313	1.8540	0.3052	-24.6582	21.1792	1.4063	32.0471	153.7646	44.0400	-29	-262	259	100903	0.35 
61.292	-1.5615	0.1079	2.4111	-4.2114	33.5083	-20.6909	1.4447	33.3710	153.8965	44.0400	-31	-263	261	100902	0.35 
61.355	-1.1362	-0.0552	1.5117	-4.2114	-34.4238	-53.6499	-0.8679	31.6406	151.0016	44.0400	-28	-261	262	100902	0.35 
61.495	-1.1768	-0.2329	2.0220	-9.9487	31.4941	-21.4233	-4.0430	33.1842	147.1344	44.0300	-18	-258	258	100902	0.35 
61.573	-1.1675	-0.0698	1.3984	-12.3291	-22.5220	5.1880	-5.7513	32.1021	146.4368	44.0200	-10	-253	255	100902	0.35 
61.745	-1.1963	-0.1436	1.8960	-12.8174	19.3481	-13.0615	-7.3773	33.3820	145.5634	44.0300	-10	-249	253	100902	0.35 
61.870	-1.1445	-0.2251	1.7393	-7.0801	9.8877	14.1602	-7.8058	34.0302	146.5192	44.0300	-6	-246	248	100901	0.35 
61.917	-1.2441	-0.2192	1.9902	-4.0894	10.1318	20.9351	-7.8223	34.7717	146.7719	44.0500	-7	-246	248	100901	0.35 
61.980	-1.4937	-0.1421	2.2544	3.6621	34.1187	0.6714	-7.1960	36.3428	147.1234	44.0400	-6	-245	251	100901	0.35 
62.152	-1.3696	0.0313	1.5425	4.9438	-23.9258	5.7983	-5.5371	35.7385	148.6230	44.0500	-2	-250	252	100901	0.35 
62.339	-1.2515	-0.2095	1.9692	19.8975	22.3999	28.1372	-1.0986	37.7490	153.1494	44.0500	-8	-252	255	100901	0.35 
62.386	-1.2817	0.0981	1.5464	-1.7700	-9.9487	0.0000	-1.1096	36.2823	151.2927	44.0300	-14	-257	256	100900	0.35 
62.495	-1.2139	-0.0801	1.8135	7.8735	-10.5591	5.0049	0.2856	35.9473	153.6713	44.0400	-17	-261	256	100900	0.35 
62.558	-1.2212	0.1265	1.9121	-0.6714	8.4839	12.3291	0.7251	35.5023	153.9240	44.0400	-22	-260	257	100899	0.35 
62.730	-1.2939	0.1509	1.8867	-10.4370	4.0894	-16.5405	-0.0714	34.9969	153.3087	44.0600	-18	-262	254	100899	0.35 
62.777	-1.3799	-0.1821	2.0859	-3.6621	-22.5830	-38.6963	-2.0490	36.0297	151.0620	44.0600	-14	-256	254	100899	0.36 
62.917	-1.3589	-0.3247	1.4146	-3.6621	18.0664	-41.9922	-5.1965	34.7607	145.5249	44.0400	-5	-251	250	100898	0.36 
62.949	-1.2915	0.0952	1.7749	-9.0942	-29.9072	-2.5024	-7.7344	35.0958	141.3171	44.0400	9	-248	248	100898	0.36 
63.121	-1.1982	-0.2529	1.7598	-1.6479	19.4702	-4.3945	-7.6740	34.5245	142.3334	44.0400	5	-243	245	100898	0.36 
63.199	-1.1440	-0.1255	1.7070	-8.6670	-2.8687	4.5166	-8.4045	34.2609	141.6357	44.0400	7	-242	246	100898	0.36 
63.339	-1.2715	-0.1440	1.9902	-3.6011	7.2632	6.7749	-8.5474	34.9091	142.3279	44.0500	11	-240	243	100897	0.36 
63.386	-1.1890	-0.3115	1.8965	0.3052	-2.0752	12.5122	-7.8717	34.6948	144.2175	44.0300	6	-239	245	100897	0.36 
63.527	-1.3535	-0.0698	2.0508	6.5308	-10.2539	20.1416	-6.9543	35.2496	145.4755	44.0200	4	-238	246	100897	0.36 
63.746	-1.4580	-0.0156	1.2485	-8.8501	-11.9629	48.9502	-4.1199	34.8376	150.0513	44.0100	0	-242	244	100897	0.36 
63.792	-1.3179	-0.0825	1.9419	10.0708	-9.1553	11.1694	-0.6317	36.6779	153.6713	44.0100	-7	-245	247	100897	0.36 
63.824	-1.1704	-0.0039	1.6460	7.5684	2.5635	18.0664	0.9393	35.4254	155.2423	44.0200	-13	-249	248	100897	0.36 
63.949	-1.2227	-0.0469	1.7754	4.2725	-20.5688	5.9204	1.8951	35.0958	156.1212	44.0100	-19	-250	252	100897	0.36 
64.105	-1.2173	0.0474	1.8940	3.2349	7.8125	15.1367	2.9004	34.7443	157.0935	44.0100	-18	-252	249	100897	0.36 
64.167	-1.2710	-0.0635	1.9097	7.2021	2.0142	-8.3008	3.2849	34.7827	157.1155	44.0000	-18	-254	250	100897	0.36 
64.230	-1.5342	-0.0215	2.4312	-1.6479	-4.8828	-10.4370	2.6312	36.7603	155.0391	44.0100	-10	-254	255	100897	0.36 
64.386	-1.3813	-0.0781	1.3179	-3.4790	2.9297	-25.8179	0.6812	35.0958	151.8695	44.0100	-7	-257	259	100897	0.36 
64.558	-1.3076	0.0146	1.9136	-9.0332	-9.8877	-12.8784	-1.0822	36.2054	149.0405	44.0100	1	-257	257	100897	0.36 
64.621	-1.1919	-0.0352	1.6636	-1.8311	-8.4229	-17.2119	-2.8894	34.2828	147.4640	43.9900	2	-252	254	100897	0.36 
64.715	-1.2173	-0.0806	1.7607	-9.2773	-4.0283	1.1597	-4.0375	33.6292	146.7224	44.0000	3	-256	248	100896	0.36 
64.793	-1.1621	-0.2212	1.9131	-8.3008	11.4746	7.1411	-4.4989	33.8873	147.8979	44.0100	1	-250	244	100896	0.36 
64.965	-1.2144	-0.1528	2.0894	-5.4321	-13.2446	1.3428	-5.2405	33.2941	147.6453	44.0100	3	-251	244	100895	0.36 
65.027	-1.3823	-0.1802	2.4170	7.9346	26.9775	-16.4185	-5.3998	33.0634	147.7167	44.0100	6	-251	242	100895	0.36 
65.152	-1.4302	0.0366	1.4395	-0.6714	-22.0947	40.2832	-3.1970	31.6791	150.3204	44.0200	-1	-256	241	100895	0.36 
65.215	-1.2471	-0.1284	1.9224	6.6528	-8.5449	22.3999	-0.6152	32.8436	153.4845	44.0000	-11	-263	244	100894	0.36 
65.386	-1.1982	-0.0723	1.5542	10.6812	6.1035	0.3052	0.9888	32.0966	154.8743	44.0100	-18	-264	242	100895	0.36 
65.433	-1.2119	0.0010	1.8320	7.4463	3.3569	-2.9907	1.4392	32.9974	154.2975	44.0100	-18	-269	246	100894	0.36 
65.558	-1.1831	0.0225	1.8740	8.6060	13.8550	7.5073	2.3566	33.4369	154.7205	43.9900	-14	-272	250	100894	0.36 
65.621	-1.1831	-0.0229	1.8936	6.8359	-2.3804	-18.1274	2.6862	33.9972	154.2426	44.0000	-12	-276	253	100894	0.36 
65.777	-1.2588	-0.0464	2.0879	-2.4414	1.3428	-40.8936	1.1151	34.0137	151.2762	44.0100	-5	-277	253	100893	0.36 
65.933	-1.3423	0.1157	2.0142	-12.0850	-7.0190	-29.2358	-2.8894	33.3105	146.6455	44.0200	5	-274	247	100893	0.36 
66.011	-1.2852	-0.1836	1.4155	-9.2773	-3.2349	-25.9399	-6.0040	32.2394	143.0090	44.0200	8	-265	244	100892	0.36 
66.043	-1.3140	-0.0957	1.9038	-20.9351	-10.9863	-8.2397	-8.3002	32.8821	141.3007	44.0100	17	-260	240	100892	0.36 
66.183	-1.1787	-0.1187	1.6563	-6.9580	0.5493	-3.9063	-9.9371	31.2231	141.2677	44.0100	15	-255	230	100891	0.36 
66.246	-1.1509	-0.1094	1.7998	-11.9019	-3.2959	-4.3945	-11.1346	30.9979	140.6250	44.0100	11	-250	228	100891	0.36 
66.418	-1.1724	-0.3247	1.9404	-4.0283	-0.7324	-6.5918	-11.3379	31.0034	141.1523	44.0200	9	-246	223	100891	0.36 
66.590	-1.2441	-0.3857	2.0908	14.3433	-7.7515	21.6675	-10.3876	30.3882	142.3993	44.0200	10	-239	223	100891	0.36 
66.652	-1.3809	0.0327	1.6069	15.6250	-38.3911	64.5752	-6.5479	30.1740	146.2390	44.0000	5	-245	226	100891	0.36 
66.762	-1.2739	-0.0093	1.9502	14.0381	17.2729	19.9585	-4.2133	30.6134	148.9856	44.0000	-9	-252	228	100890	0.36 
66.809	-1.1108	-0.0444	1.5581	10.1929	-18.2495	-9.7046	-2.6532	29.7455	149.6448	44.0000	-11	-254	232	100890	0.36 
66.965	-1.1816	-0.1890	1.8574	4.6997	4.2725	-20.2026	-2.4060	30.2234	149.1010	43.9900	-12	-255	235	100889	0.36 
67.027	-1.0825	-0.1240	1.7695	5.7983	8.8501	-36.6211	-3.5376	30.4102	146.2720	44.0000	-3	-254	238	100889	0.36 
67.184	-1.0732	-0.1787	1.8271	3.6621	2.8076	-62.6831	-6.0864	30.8386	140.5865	44.0100	10	-251	242	100889	0.36 
67.230	-1.1597	-0.0503	1.9858	9.2163	5.4321	-58.8989	-9.0527	30.5200	133.7531	44.0200	27	-243	243	100889	0.36 
67.402	-1.1943	-0.0684	1.7554	17.0288	-6.7139	-86.6089	-11.2720	29.2181	126.0736	44.0300	44	-236	243	100889	0.36 
67.449	-1.4087	-0.0425	1.9512	6.9580	-16.0522	-63.2935	-13.1561	28.3282	120.0092	44.0200	61	-226	246	100889	0.36 
67.574	-1.1499	-0.3662	1.5889	4.6997	14.8926	-72.8149	-15.5841	26.6473	113.8678	44.0300	75	-211	246	100889	0.36 
67.652	-1.2925	-0.1030	2.0581	3.0518	-2.5024	-50.2930	-18.0231	26.9714	107.2760	44.0200	91	-199	249	100889	0.36 
67.793	-1.0205	-0.2529	1.7041	5.9204	14.0381	-77.0264	-19.8907	25.1477	101.7773	44.0400	98	-183	253	100888	0.36 
67.871	-1.1641	-0.1489	1.8555	11.2305	5.4932	-61.5234	-21.4069	24.4336	95.6250	44.0500	112	-166	260	100888	0.36 
68.012	-1.0991	-0.0269	1.9438	10.3760	25.7568	-34.8511	-21.6980	24.1919	91.3623	44.0500	118	-151	259	100888	0.36 
68.090	-1.0640	-0.2085	1.8101	6.9580	9.7656	-21.5454	-20.5939	25.0104	90.5713	44.0500	120	-148	264	100888	0.36 
68.231	-1.2930	-0.2104	1.9565	-4.4556	13.7329	6.8970	-19.6875	26.6748	90.9338	44.0700	123	-141	269	100888	0.36 
68.371	-1.2222	-0.1602	1.7485	8.7280	-20.9351	-22.2168	-18.8690	26.3342	90.9009	44.0500	121	-140	270	100888	0.36 
68.418	-1.3496	-0.0176	1.8696	8.7280	30.2734	-27.9541	-18.0231	26.4386	90.1483	44.0700	117	-135	270	100888	0.36 
68.465	-1.2612	-0.2925	1.6519	12.7563	-34.0576	-51.6968	-18.5724	25.0159	86.6052	44.0700	118	-127	270	100888	0.36 
68.622	-1.2090	0.0654	1.9302	23.8647	19.8975	-92.4072	-19.4073	23.3295	80.1178	44.0500	113	-112	267	100888	0.36 
68.684	-1.1123	-0.1519	1.6670	12.8174	-7.2632	-65.1245	-19.4843	21.6650	74.9323	44.0700	108	-98	267	100888	0.36 
68.840	-1.2119	-0.0283	2.0112	18.5547	8.0566	-86.4868	-20.3632	21.1102	68.1921	44.0500	102	-86	264	100888	0.36 
68.903	-1.1411	-0.0464	1.8325	16.5405	-1.8921	-71.9604	-20.3961	19.2975	63.0066	44.0800	96	-70	265	100888	0.36 
69.044	-1.2705	-0.0376	1.9302	1.5869	9.8267	-104.1870	-21.3904	17.5507	56.5686	44.0700	82	-54	265	100888	0.36 
69.200	-1.1431	-0.1860	1.5000	-6.4087	-28.9917	-76.7212	-22.8680	15.7269	52.7454	44.0800	72	-40	263	100888	0.36 
69.309	-1.0991	-0.2114	1.9629	9.5825	32.8979	-63.5986	-24.1150	15.1392	46.1700	44.0700	54	-24	263	100888	0.36 
69.450	-1.2256	-0.0703	1.6709	4.8828	1.0376	-71.1670	-24.7687	14.9139	42.4896	44.0700	42	-16	267	100888	0.36 
69.497	-1.0615	-0.1431	1.8643	4.0894	14.6484	-39.9780	-25.2631	15.1447	39.1608	44.0700	25	-7	267	100888	0.36 
69.591	-1.1216	-0.2544	1.8125	7.5684	3.7842	-28.6255	-24.8950	15.7874	38.1006	44.0600	21	-4	267	100888	0.36 
69.669	-1.1602	-0.1523	1.8545	0.7935	11.5356	-15.7471	-24.5709	16.5948	37.3535	44.0700	13	-2	267	100888	0.36 
69.716	-1.1357	-0.2012	1.9580	4.6387	6.2256	-28.0151	-24.3896	17.2485	36.7108	44.0800	6	-2	269	100888	0.36 
69.872	-1.1792	-0.0620	2.1758	-4.5776	17.0288	-13.9771	-24.0985	19.3414	36.9141	44.0800	6	-3	267	100888	0.36 
70.091	-1.3706	-0.2324	2.1519	7.9956	-10.7422	6.9580	-23.6261	20.9564	37.7765	44.0700	8	-4	271	100888	0.36 
70.231	-1.3379	-0.1729	1.1533	13.1226	21.8506	17.7612	-21.7804	20.6873	44.2749	44.0500	6	-4	271	100888	0.36 
70.278	-1.3389	0.0400	1.9170	18.7988	-41.5039	-14.4653	-19.4678	22.4725	44.0332	44.0600	10	-8	268	100888	0.36 
70.309	-1.2129	-0.0845	1.6680	14.4653	20.1416	-31.8604	-17.1881	21.6925	46.0822	44.0400	1	-9	260	100888	0.36 
70.325	-1.1870	0.0249	1.8320	9.3994	-13.6719	-10.6201	-16.5619	22.8516	45.7196	44.0500	-3	-9	259	100888	0.36 
70.466	-1.1938	0.0190	1.8486	10.7422	19.8975	-25.6958	-15.9576	23.9392	45.9338	44.0500	-9	-11	259	100888	0.36 
70.637	-1.0747	-0.0107	1.8555	1.5259	-4.7607	-21.7896	-15.5402	24.3677	46.2689	44.0500	-11	-11	258	100888	0.36 
70.700	-1.3550	-0.0127	1.9160	0.9766	14.6484	-34.1797	-16.2872	25.2960	45.1483	44.0600	-18	-12	261	100888	0.36 
70.825	-1.3706	0.0977	2.3003	-10.6812	-9.8877	-18.7378	-17.3694	26.8011	44.8187	44.0700	-18	-5	262	100888	0.36 
70.872	-1.5381	-0.3862	1.3960	-13.3057	29.4189	-31.4941	-19.7479	27.2516	44.7693	44.0500	-22	-5	265	100888	0.36 
71.044	-1.3071	-0.0332	1.9014	-13.8550	-14.9536	-10.8032	-20.5609	29.1907	45.1099	44.0400	-20	-2	270	100887	0.36 
71.091	-1.1938	-0.2510	1.7041	1.2207	5.3101	-22.0947	-20.7861	28.3777	46.4886	44.0300	-20	0	273	100887	0.36 
71.247	-1.2031	-0.0840	1.6899	-7.2632	-6.5308	-6.3477	-21.3904	28.1305	46.1646	44.0400	-27	3	271	100887	0.36 
71.294	-1.2163	-0.2808	1.8447	-7.8125	9.2773	-3.9063	-21.4288	28.8885	48.0597	44.0200	-25	4	276	100887	0.36 
71.450	-1.2749	-0.2671	1.8706	-10.5591	4.8828	1.1597	-21.5826	29.6191	49.1254	44.0500	-24	4	280	100887	0.37 
71.531	-1.3149	-0.3672	1.9985	6.2866	0.6104	20.7520	-20.9564	30.9540	51.2567	44.0500	-22	3	282	100886	0.37 
71.640	-1.4653	0.0308	1.8872	22.0947	-27.3438	28.5645	-17.8418	31.1078	54.6790	44.0500	-16	5	283	100886	0.37 
71.702	-1.2705	-0.1016	1.7085	14.6484	12.6953	16.0522	-13.5626	31.1023	60.8588	44.0500	-11	0	282	100886	0.37 
71.827	-1.2871	-0.1372	1.7324	10.5591	-7.3853	-13.4277	-11.8652	31.1462	61.8695	44.0300	-9	-2	281	100886	0.37 
71.890	-1.1948	0.0303	1.7344	13.0615	6.4697	-0.9155	-10.5249	31.1298	62.6770	44.0100	-13	-2	276	100886	0.37 
72.031	-1.2061	-0.0112	1.8398	10.9253	4.9438	-4.1504	-9.2505	31.8658	63.8086	44.0300	-11	-8	269	100885	0.37 
72.156	-1.3682	0.0039	2.0684	9.5215	-3.4790	3.6621	-7.8278	32.7173	65.4016	44.0400	-11	-11	272	100885	0.37 
72.296	-1.3525	0.0210	2.0664	18.1885	14.9536	-26.6113	-6.6248	31.3989	65.8301	44.0400	-15	-9	272	100885	0.37 
72.452	-1.1787	0.0996	2.0181	3.9063	-3.1128	-60.5469	-9.5801	31.3605	60.6940	44.0600	-25	-9	268	100884	0.37 
72.515	-1.3364	-0.1704	1.4351	-3.6621	6.5308	-12.1460	-11.7279	30.8167	59.0405	44.0400	-32	-7	265	100884	0.37 
72.531	-1.3071	0.1006	1.9888	-9.4604	-12.6953	2.0142	-13.0518	31.9373	58.0243	44.0500	-36	-3	271	100884	0.37 
72.671	-1.2144	-0.1787	1.7075	-8.7891	7.8735	-7.9346	-13.1342	31.0089	60.6775	44.0300	-38	-4	270	100883	0.37 
72.749	-1.2031	-0.1270	1.7295	-11.9019	0.0000	2.3193	-13.6560	31.3000	61.6443	44.0300	-38	-2	271	100883	0.37 
72.906	-1.1338	-0.1392	1.8301	3.5400	-13.1836	-2.9297	-13.4912	30.9869	62.5726	44.0400	-38	0	275	100883	0.37 
73.093	-1.2051	-0.0684	2.0347	2.9297	6.2256	15.5640	-12.2498	31.2726	64.3414	44.0600	-38	0	273	100882	0.37 
73.140	-1.3276	-0.2705	2.0596	-0.1221	16.9067	18.0054	-10.4974	31.8878	67.6099	44.0700	-33	-3	274	100882	0.37 
73.312	-1.3452	-0.0542	1.5293	-5.6152	-11.5967	36.3159	-8.5913	32.3987	71.5869	44.0600	-25	-4	278	100882	0.37 
