StartTime: 2017-07-11 15:37:52.187
Time(s)	ax(g)	ay(g)	az(g)	wx(deg/s)	wy(deg/s)	wz(deg/s)	AngleX(deg)	AngleY(deg)	AngleZ(deg)	T(°)	hx	hy	hz	Pressure(Pa)	Altitude(m) 
20.567	-1.3013	-0.0908	1.8276	-1.4648	1.5869	1.2207	-2.8400	35.9143	145.8600	44.3100	43	-278	267	100847	0.40 
20.770	-1.3125	-0.1025	1.8296	-0.8545	1.8921	-2.4414	-3.0048	36.0626	145.6403	44.3100	45	-277	266	100846	0.40 
20.801	-1.3135	-0.0957	1.8071	-0.4883	0.9155	-2.0142	-3.1970	36.1121	145.2063	44.3200	45	-271	267	100847	0.40 
20.910	-1.3164	-0.0981	1.8218	-1.0986	0.7324	-0.2441	-3.2959	36.1890	144.9316	44.3300	44	-274	265	100846	0.40 
20.989	-1.3081	-0.0811	1.8228	-0.8545	0.3662	1.9531	-3.2849	36.1945	144.8987	44.3200	42	-276	267	100846	0.40 
21.114	-1.3081	-0.0908	1.8267	-0.6104	0.3662	-0.2441	-3.2739	36.2329	144.8767	44.3300	45	-274	264	100846	0.40 
21.207	-1.3262	-0.0889	1.8188	-1.6479	0.7324	2.1362	-3.3563	36.3043	144.7888	44.3200	44	-274	263	100846	0.40 
21.332	-1.3149	-0.0889	1.8179	-1.5869	1.0376	1.3428	-3.3563	36.3428	144.8877	44.3500	41	-275	265	100846	0.40 
21.395	-1.3320	-0.0884	1.8115	-2.3193	3.9063	2.7466	-3.3289	36.5680	145.1074	44.3400	43	-274	268	100846	0.40 
21.535	-1.3687	-0.0811	1.7954	-2.5635	1.4038	7.5684	-3.2245	36.9360	145.5194	44.3600	46	-276	265	100846	0.40 
21.692	-1.2871	-0.1284	1.6763	0.2441	-5.4321	-0.1221	-2.9608	36.5570	145.7062	44.3500	40	-272	263	100846	0.40 
21.754	-1.3306	-0.2251	1.9429	10.2539	7.2021	-25.5127	-4.1583	37.6337	143.4595	44.3600	41	-276	265	100846	0.40 
21.895	-1.3384	0.0049	1.8818	-8.1177	-8.6670	13.7329	-4.0814	36.9910	142.9761	44.3600	47	-275	269	100846	0.40 
21.958	-1.2290	-0.1377	1.8257	-13.9160	5.5542	1.7090	-4.8615	37.3206	143.6572	44.3600	46	-273	266	100846	0.40 
22.130	-1.2134	-0.1797	1.9204	-11.3525	4.0283	3.0518	-5.9106	37.5018	144.0198	44.3600	43	-273	263	100846	0.40 
22.192	-1.2178	-0.1519	1.8706	4.0283	2.5024	-8.9111	-5.6140	36.9086	144.3274	44.3500	43	-272	261	100846	0.40 
22.348	-1.7095	-0.1343	2.6030	14.6484	7.3242	18.7378	-5.4657	39.2487	144.1516	44.3600	41	-274	265	100846	0.40 
22.505	-1.5693	0.0166	1.3589	9.1553	31.0059	49.4385	-1.5656	40.4132	148.2550	44.3500	35	-279	261	100847	0.40 
22.536	-1.3428	-0.1206	1.8633	12.0239	-22.3999	-17.8223	1.1975	41.5942	150.2600	44.3400	27	-283	270	100847	0.40 
22.723	-1.3174	0.0454	1.4629	7.4463	20.5688	16.5405	3.4332	40.5725	151.5399	44.3200	23	-286	269	100847	0.40 
22.755	-1.3862	-0.0024	1.6611	6.5918	4.8218	-7.5073	3.9386	41.9128	151.4026	44.3200	21	-286	274	100847	0.40 
22.817	-1.5020	0.0967	2.1069	5.0659	-4.3945	5.3101	4.2792	42.6709	151.0016	44.3200	22	-290	277	100847	0.40 
22.974	-1.8032	0.1172	2.1250	-7.1411	50.9033	-15.1978	2.7356	42.7698	149.0405	44.3100	23	-286	275	100846	0.40 
23.098	-1.4321	-0.2456	1.3232	-1.8921	-16.6016	-34.8511	-0.2087	41.5448	145.7666	44.3100	29	-283	276	100846	0.40 
23.161	-1.3535	0.0332	1.8745	-2.5024	-23.7427	-17.2119	-3.3783	40.8527	141.5369	44.2900	36	-272	272	100846	0.40 
23.224	-1.2358	-0.1426	1.4199	-7.3853	-18.4326	-16.1133	-5.0592	37.6941	140.2460	44.3100	32	-271	267	100845	0.40 
23.411	-1.2788	-0.0947	1.7261	-13.4888	-2.6855	4.3945	-6.1139	37.4799	139.8779	44.2900	36	-269	265	100845	0.40 
23.536	-1.2944	-0.2334	1.9321	-9.2163	18.9819	8.5449	-6.7566	38.4796	140.8063	44.2600	32	-262	263	100845	0.40 
23.583	-1.4204	-0.3618	1.7549	5.6152	14.0381	-8.0566	-7.2839	38.3368	139.4330	44.2800	32	-261	268	100845	0.40 
23.723	-1.4224	0.0259	1.5239	11.8408	-5.8594	31.0059	-5.9491	39.1223	139.9438	44.2800	37	-266	266	100845	0.40 
23.786	-1.3774	0.0029	1.7964	12.9395	3.9063	16.6626	-1.8292	40.2374	144.6240	44.2600	29	-274	269	100845	0.40 
23.942	-1.3613	-0.0894	1.5566	3.4790	-14.1602	18.2495	0.2197	38.9685	146.7719	44.2500	20	-274	271	100844	0.40 
24.020	-1.3516	-0.0015	1.6831	-0.3662	-4.2114	20.3857	1.8127	38.5291	148.8318	44.2600	15	-277	270	100844	0.40 
24.161	-1.2920	0.0356	1.6504	-6.0425	10.3149	-1.0376	2.5378	38.6334	150.1666	44.2500	11	-280	275	100843	0.40 
24.208	-1.3760	0.0010	1.9644	-6.2866	-0.5493	-9.5215	0.8240	39.9792	148.9636	44.2600	9	-280	273	100844	0.40 
24.380	-1.9580	-0.1572	2.7578	-7.8125	-9.7046	-3.2349	0.8075	41.9403	149.0131	44.2600	13	-280	277	100843	0.40 
24.567	-1.4331	-0.1514	1.2334	-3.6621	6.2866	-43.8232	-2.9993	40.5945	144.5416	44.2700	15	-277	271	100843	0.40 
24.630	-1.4116	-0.1646	1.8140	-5.7373	-12.3291	-12.4512	-5.5701	40.8307	142.1686	44.2500	19	-271	268	100842	0.40 
24.739	-1.3477	-0.1548	1.5625	-2.2583	-3.4180	-22.3999	-7.2455	39.5947	139.8285	44.2400	24	-263	264	100841	0.40 
24.786	-1.2603	-0.1440	1.6025	-3.7842	-5.1270	-4.5776	-8.5913	39.0344	137.9663	44.2500	27	-262	264	100841	0.40 
24.974	-1.4097	-0.2349	2.0151	5.0659	1.4648	-5.6152	-8.6462	39.3146	137.8619	44.2400	33	-257	263	100841	0.40 
25.036	-1.5747	-0.3296	2.1284	0.1831	26.3672	-5.4932	-8.7781	38.8422	136.7853	44.2500	33	-261	263	100841	0.40 
25.146	-1.5034	-0.1738	1.1924	-3.1128	7.2021	57.4341	-4.8340	39.2487	140.7513	44.2400	30	-259	266	100840	0.40 
25.192	-1.4580	0.0210	1.9644	6.2866	-6.8359	17.5171	-1.3184	41.4349	145.0909	44.2300	21	-264	270	100840	0.40 
25.380	-1.4272	0.0464	1.5605	-1.0986	6.2866	21.7285	0.6042	40.2429	147.6343	44.2100	14	-266	271	100840	0.40 
25.411	-1.3779	-0.0225	1.7134	2.0752	-3.4180	9.2773	1.8182	40.5890	149.3811	44.2400	10	-269	274	100839	0.40 
25.583	-1.4136	0.1870	1.8345	0.1831	-5.1880	15.6860	2.6038	40.1605	150.4193	44.2400	5	-273	273	100839	0.41 
25.802	-1.5718	-0.0664	1.8462	6.5308	-0.5493	-12.3291	4.0430	38.6279	152.4628	44.2600	-1	-274	274	100839	0.41 
25.880	-1.4663	-0.1118	1.7563	-5.1270	-28.0151	-31.6772	2.9553	37.9083	149.7876	44.2300	0	-273	276	100838	0.41 
25.958	-1.3818	0.0313	1.7036	-5.4932	15.7471	-10.8643	-0.8295	38.6774	144.1736	44.2300	10	-271	274	100838	0.41 
25.989	-1.3442	-0.1792	1.4932	-8.6670	-17.3950	-14.0381	-2.4060	38.1940	143.5913	44.2200	16	-268	273	100838	0.41 
26.036	-1.3892	-0.1216	1.7144	-8.3618	4.0894	-23.7427	-4.8999	38.3093	140.4822	44.2300	21	-263	269	100838	0.41 
26.208	-1.3228	-0.0942	1.7427	-11.5356	8.4229	-10.0708	-7.4487	38.4247	137.9828	44.2000	26	-262	269	100837	0.41 
26.349	-1.3267	-0.1748	1.8926	-0.9155	5.2490	-0.3052	-8.2178	38.8751	137.7026	44.2000	29	-259	266	100837	0.41 
26.411	-1.8906	0.0938	2.5410	12.0850	11.2915	16.6626	-7.8937	40.4462	137.5983	44.2300	35	-258	268	100837	0.41 
26.458	-1.5674	-0.1558	1.2964	-2.1362	27.2217	39.2456	-4.4495	41.0779	142.2345	44.1900	29	-261	265	100836	0.41 
26.599	-1.4033	-0.0122	1.6812	5.4321	-24.0479	21.1792	-1.1261	42.7478	145.7336	44.1800	24	-266	269	100836	0.41 
26.661	-1.4702	0.1533	1.6914	-2.5635	2.2583	17.2729	0.6537	41.8359	147.9529	44.1800	17	-270	269	100836	0.41 
26.802	-1.3174	-0.1587	1.6143	3.1128	-7.0190	2.8687	1.5326	40.8966	149.7656	44.1700	6	-269	267	100836	0.41 
26.958	-1.4795	0.1978	1.9126	1.8311	5.5542	10.3149	2.0325	41.2042	149.6008	44.1600	6	-271	270	100836	0.41 
26.990	-1.7383	-0.1406	2.0063	9.4604	23.4375	9.2773	3.2684	41.4954	150.7764	44.1700	4	-271	271	100836	0.41 
27.193	-1.4248	-0.0386	1.3569	3.4790	-11.2915	-54.4434	0.8734	41.8469	146.8488	44.1500	6	-269	273	100836	0.41 
27.224	-1.5132	-0.2021	1.9346	-10.0708	28.9307	-27.8320	-2.2412	43.8135	142.3279	44.1500	22	-269	276	100835	0.41 
27.412	-1.3691	-0.1631	1.4883	-5.3711	-17.5781	-31.4331	-5.2789	41.9403	138.7573	44.1500	31	-263	274	100835	0.41 
27.474	-1.4385	-0.1328	1.8125	-6.1035	-10.6812	-35.1563	-8.8110	41.0944	134.0552	44.1400	37	-258	271	100834	0.41 
27.646	-1.2808	-0.0933	1.5791	0.0000	-15.3198	7.7515	-9.0253	38.4357	133.3630	44.1500	41	-252	268	100833	0.41 
27.677	-1.5483	-0.6431	2.0264	3.8452	23.4375	-8.8501	-8.9703	38.8861	133.0994	44.1300	43	-254	266	100833	0.41 
27.771	-1.2930	-0.1006	1.2510	4.5776	-19.8364	46.7529	-5.8777	37.7875	134.9121	44.1500	43	-252	270	100833	0.41 
27.865	-1.4399	-0.0068	2.0454	10.4370	8.7891	5.0049	-3.0597	40.2539	138.6859	44.1400	37	-260	274	100832	0.41 
28.021	-1.3560	-0.1792	1.4277	5.7983	-1.5869	-2.6245	-2.5269	38.5400	139.1528	44.1200	37	-262	269	100832	0.41 
28.083	-1.4541	0.0923	1.7319	4.3335	-8.6060	15.1367	-1.5491	39.1608	139.6692	44.1200	38	-266	270	100832	0.41 
28.224	-1.3838	0.0215	1.6748	2.6245	17.8833	-4.6387	-0.4395	39.5288	140.7019	44.1100	37	-268	272	100832	0.41 
28.302	-1.4326	0.0254	1.9365	-0.2441	7.7515	2.6855	0.2747	40.8252	141.5753	44.1100	37	-270	278	100832	0.41 
28.427	-1.8252	-0.0171	2.0098	-6.2866	19.9585	8.8501	0.2417	41.8579	142.2015	44.1200	38	-270	278	100831	0.41 
28.490	-1.3701	-0.1235	1.2251	-3.7231	-44.9829	-61.5234	-3.5321	40.1495	137.1478	44.1200	42	-269	275	100831	0.41 
28.646	-1.5615	-0.1528	1.9063	-27.7100	-8.4839	5.7983	-5.4657	40.5560	136.1371	44.1200	47	-260	267	100831	0.41 
28.787	-1.2769	-0.0107	1.3325	-13.5498	-15.0146	11.1084	-6.8390	38.1061	136.6370	44.1100	42	-256	261	100831	0.41 
28.865	-1.3892	-0.2261	1.7295	-16.2964	-5.9814	3.1738	-7.1686	38.4686	138.2410	44.1100	36	-249	254	100830	0.41 
29.037	-1.3516	-0.1396	1.7671	-9.2163	11.8408	24.9023	-7.1631	38.3478	140.0482	44.1100	33	-251	249	100830	0.41 
29.099	-1.3628	-0.2090	1.9844	2.5024	5.2490	19.6533	-5.7349	39.2212	142.1906	44.1000	31	-249	248	100829	0.41 
29.256	-1.8599	0.1553	2.7715	11.3525	6.3477	-1.7090	-4.5538	40.7758	142.8333	44.1100	34	-250	254	100829	0.41 
29.412	-1.5620	-0.2314	1.3057	-0.7935	4.3945	36.5601	-1.8073	39.6771	146.7609	44.0900	31	-251	252	100829	0.41 
29.490	-1.4595	-0.0264	1.6851	6.7139	-13.1836	26.0620	0.9119	40.2484	149.2657	44.0800	25	-254	253	100829	0.41 
29.490	-1.3662	-0.1211	1.6328	5.4932	12.6953	-2.5635	2.4390	40.1990	150.3424	44.0700	17	-255	256	100829	0.41 
29.615	-1.3564	0.1328	1.7144	2.6855	-3.2349	3.8452	3.3453	40.1770	150.5841	44.0600	18	-258	257	100829	0.41 
29.693	-1.3462	-0.0073	2.0195	-1.9531	-39.1235	-1.7700	3.6145	38.9575	151.0071	44.0700	18	-262	262	100828	0.41 
29.834	-1.9473	-0.1406	2.6655	-12.3291	27.0996	-5.7373	3.4003	38.5895	151.3037	44.0700	14	-264	260	100828	0.41 
29.912	-1.3848	0.1011	1.3257	-2.5024	-1.0376	-56.6406	-0.7196	35.6122	145.4370	44.0700	13	-259	256	100828	0.41 
30.068	-1.3706	-0.2095	1.7676	-8.5449	-14.2822	-19.3481	-3.3783	36.3867	142.8003	44.0500	23	-257	253	100827	0.41 
30.255	-1.2490	-0.1606	1.5571	-7.9346	-8.3618	-17.7002	-6.0095	34.7827	139.7461	44.0300	29	-256	250	100827	0.42 
30.318	-1.2920	-0.1616	1.6743	-4.7607	10.6201	-4.9438	-7.4048	35.2057	138.2355	44.0500	30	-250	247	100826	0.42 
30.412	-1.2993	-0.2080	1.9155	-1.2207	-2.0752	-9.2773	-8.2178	35.9747	137.8180	44.0500	38	-246	246	100826	0.42 
30.459	-1.5679	-0.1396	2.1826	-2.9907	6.1035	-6.9580	-10.0964	36.1285	135.4669	44.0500	42	-243	246	100826	0.42 
30.537	-1.5615	0.0957	1.7451	33.2642	-30.9448	30.7007	-7.0203	36.4362	138.0597	44.0600	49	-248	251	100826	0.42 
30.709	-1.4951	-0.0093	1.8828	36.0718	10.3760	-7.1411	-3.3948	36.6064	139.8889	44.0400	40	-258	254	100825	0.42 
30.818	-1.2681	-0.0713	1.3853	6.2866	-16.4795	21.9116	0.0659	34.7827	142.5421	44.0300	33	-265	260	100825	0.42 
30.912	-1.3647	-0.0142	1.7549	5.6763	-7.8735	2.4414	1.2360	35.0793	143.7177	44.0200	30	-272	259	100824	0.42 
31.084	-1.2710	0.0405	1.8628	-6.7139	-1.2207	3.9063	1.5051	34.8596	144.3054	44.0200	26	-276	260	100824	0.42 
31.130	-1.3442	0.0654	1.9551	-7.7515	-1.2817	28.3203	2.1094	34.6729	147.0190	44.0400	24	-280	255	100823	0.42 
31.255	-1.6675	0.1782	2.1484	6.4087	25.6958	-14.7705	1.6974	35.6342	146.2720	44.0300	20	-281	256	100824	0.42 
31.349	-1.2837	-0.2339	1.4404	-1.5259	-11.9019	-46.8750	-0.0769	34.8212	143.5364	44.0300	27	-276	256	100823	0.42 
31.459	-1.4365	-0.1055	1.9683	-14.3433	1.7090	-20.3857	-3.4003	36.4526	139.2078	44.0300	34	-277	254	100823	0.42 
31.552	-1.2446	-0.1250	1.5186	-7.6904	-9.3994	-31.1890	-5.8557	34.6619	136.3513	44.0300	44	-269	252	100822	0.42 
31.630	-1.2847	-0.1211	1.7427	-7.4463	-1.8921	-21.7896	-8.2782	34.6014	133.3466	44.0200	50	-264	247	100822	0.42 
31.709	-1.2354	-0.2437	1.7954	-7.6294	-1.8311	-3.4180	-9.4263	34.3268	133.0719	44.0000	54	-263	243	100822	0.42 
31.896	-1.2173	-0.1382	1.8760	1.4038	-4.3335	-12.8784	-10.1569	33.6896	131.8744	44.0100	54	-255	239	100822	0.42 
32.068	-1.6499	-0.2661	2.4526	-1.3428	29.7852	-15.3198	-10.3986	35.2386	131.1548	44.0200	59	-252	239	100822	0.42 
32.131	-1.3799	-0.1353	1.4868	19.1650	2.9907	-0.9766	-8.6078	34.6124	131.7371	44.0000	60	-251	244	100822	0.42 
32.162	-1.3237	-0.0127	1.8823	42.2974	15.0757	-26.1230	-7.0422	35.7495	129.6002	43.9800	61	-254	252	100821	0.42 
32.318	-1.3096	-0.0566	1.5303	14.4653	-15.9302	-13.6108	-5.1526	34.9695	128.1500	43.9700	66	-256	256	100821	0.42 
32.475	-1.3057	-0.0327	1.7251	14.8926	-6.4087	-19.8364	-4.5538	35.5353	126.6449	43.9500	70	-253	259	100820	0.42 
32.537	-1.2319	-0.1162	1.7061	9.2163	13.3057	-24.9023	-3.5651	35.7605	126.0901	43.9500	75	-251	264	100820	0.42 
32.647	-1.2090	0.0400	1.8423	10.6201	7.5684	-64.2090	-6.9324	36.1780	119.6741	43.9400	88	-243	272	100820	0.42 
32.725	-1.2285	-0.0435	1.8804	15.9302	23.7427	-57.6172	-10.2173	36.3043	113.2526	43.9600	106	-225	278	100819	0.42 
32.897	-1.4937	0.0557	1.8594	43.4570	4.9438	-43.8843	-10.7446	36.0242	106.9958	43.9300	117	-214	283	100819	0.42 
32.944	-1.6426	-0.4180	2.2256	29.1748	10.0708	-28.9307	-6.8665	36.5735	107.4792	43.9700	123	-206	289	100819	0.42 
33.116	-1.1934	0.0298	1.5376	9.3994	0.9155	-58.1055	-10.3436	34.2004	99.1022	43.9600	128	-193	292	100819	0.42 
33.162	-1.5073	-0.2319	1.8462	-1.5869	-17.0898	-40.7104	-13.2880	34.3433	95.4492	43.9500	137	-182	292	100818	0.42 
33.287	-1.2959	-0.1240	1.8237	-2.3193	24.7803	-43.7012	-15.6335	34.0521	91.3019	43.9500	139	-166	291	100818	0.42 
33.334	-1.2119	-0.1372	1.7017	15.2588	4.2725	-46.0205	-17.1442	34.1565	87.5171	43.9600	146	-150	291	100818	0.42 
33.506	-1.2358	-0.3965	1.8218	18.4326	-3.6621	-19.4702	-16.5289	34.4037	86.1603	43.9700	146	-141	293	100818	0.42 
33.553	-1.6753	-0.1289	2.2158	22.7051	33.9355	-31.8604	-15.6665	34.3323	84.0344	43.9800	144	-138	298	100818	0.42 
33.694	-1.3335	-0.1094	1.6084	6.1035	-17.8833	-36.9263	-16.4301	32.9810	80.9308	43.9700	141	-128	300	100818	0.42 
33.803	-1.6675	-0.1870	1.7197	8.6060	14.2822	-46.9971	-15.5676	33.1128	80.4254	43.9600	136	-121	293	100818	0.42 
33.913	-1.3828	-0.2363	1.6377	28.1982	-10.1929	-53.4668	-16.2103	31.5308	75.6464	43.9600	133	-108	294	100818	0.42 
33.960	-1.4756	0.0244	1.9082	43.1519	5.8594	-72.7539	-16.6937	30.6958	68.8239	43.9700	126	-95	290	100818	0.42 
34.131	-1.2700	-0.1836	1.6577	41.4429	5.1270	-93.5669	-16.4026	28.8391	62.1881	43.9700	115	-76	288	100818	0.42 
34.194	-1.3823	0.0752	1.8301	35.0952	10.5591	-67.8711	-16.3971	28.1689	54.8328	43.9700	101	-64	283	100818	0.42 
34.335	-1.2554	-0.1670	1.8892	39.1846	6.8359	-77.3926	-15.9741	27.4603	49.9768	43.9700	86	-49	281	100818	0.42 
34.397	-1.6299	-0.0396	2.2280	23.8037	19.4702	-102.9663	-17.4353	25.6915	41.0999	43.9700	71	-33	280	100818	0.42 
34.506	-1.4160	-0.3110	1.5757	33.6304	-15.6860	-53.0396	-16.2213	24.1754	39.4464	43.9700	52	-25	270	100818	0.42 
34.585	-1.5015	-0.0435	2.0557	21.4233	41.4429	-69.4580	-18.5120	22.7362	31.2067	43.9500	29	-19	261	100818	0.42 
34.725	-1.2900	-0.1636	1.6548	0.4883	-1.5869	-45.4102	-19.3030	22.8351	28.4161	43.9700	13	-10	261	100818	0.42 
34.803	-1.3369	-0.0908	1.8213	6.7139	36.8652	-55.4199	-20.3082	24.0765	25.6036	43.9500	4	-8	261	100818	0.42 
34.960	-1.2852	-0.1548	1.7041	7.0801	8.4229	-28.8086	-20.8795	25.6970	24.5929	43.9600	-2	-7	262	100818	0.42 
35.116	-1.4189	-0.3394	1.9619	2.3193	12.4512	-28.9307	-21.5277	27.3779	23.9832	43.9500	-8	-5	261	100818	0.42 
35.163	-1.9980	0.1372	2.7993	16.3574	31.3110	-9.9487	-23.1152	29.5917	21.8793	43.9600	-12	-3	263	100819	0.42 
35.194	-1.4810	-0.2939	1.3843	12.7563	7.1411	17.3340	-19.5337	31.6296	28.5425	43.9600	-9	-4	264	100819	0.42 
35.350	-1.5547	0.1138	1.9844	14.1602	-2.8076	6.2866	-17.6056	33.9148	31.0858	43.9500	-2	-10	262	100819	0.42 
35.413	-1.3218	-0.0571	1.4346	11.2915	-3.6011	6.3477	-15.3369	33.2501	36.1340	43.9400	-3	-12	261	100819	0.42 
35.538	-1.4658	-0.0415	1.7759	12.3901	7.8125	-7.2021	-13.5791	34.3927	39.2267	43.9200	1	-16	258	100818	0.42 
35.725	-1.3340	0.0303	1.8818	8.1787	-23.5596	2.5635	-11.9531	33.9807	42.1655	43.9200	-2	-20	257	100819	0.42 
35.803	-1.5303	0.0757	1.7524	1.8921	7.3853	-1.2817	-11.4862	32.3492	45.0604	43.9100	-10	-18	257	100819	0.42 
35.959	-1.5039	-0.2148	1.8218	-6.2866	-28.0151	-47.6074	-13.0133	31.3550	45.4395	43.9000	-15	-13	258	100819	0.42 
36.163	-1.3486	-0.1567	1.6035	-6.6528	9.8267	-35.0342	-15.8258	30.3937	42.6105	43.8900	-25	-9	261	100818	0.42 
36.209	-1.3271	-0.1162	1.5859	-3.8452	-36.4990	-30.8838	-17.2266	29.1302	41.9403	43.9000	-31	-5	263	100818	0.42 
36.209	-1.2681	-0.1963	1.5938	1.0376	13.7329	-24.2310	-18.3142	28.0756	41.3196	43.9000	-41	-4	262	100818	0.42 
36.350	-1.3330	-0.1177	1.8423	-5.5542	11.3525	-8.1177	-19.2920	29.2676	41.0120	43.8800	-48	-3	259	100818	0.42 
36.413	-1.3296	-0.1553	2.0444	7.8125	-16.6016	13.4888	-17.9791	29.9487	43.7860	43.8800	-48	-2	262	100817	0.42 
36.506	-1.7476	-0.1396	2.5161	7.0801	-4.8828	25.2686	-15.9741	31.0748	48.0157	43.9000	-45	-5	259	100817	0.42 
36.616	-1.4395	0.0098	1.3345	-1.5259	8.4229	42.4805	-12.2333	31.3934	54.4702	43.8700	-39	-8	262	100817	0.42 
36.756	-1.3862	0.0010	1.9097	6.1646	-1.1597	8.1787	-10.5524	34.2389	57.7826	43.8500	-28	-8	260	100817	0.42 
36.788	-1.3374	-0.0649	1.4858	-5.3711	12.4512	21.3013	-8.4045	34.7937	62.4188	43.8500	-21	-9	260	100817	0.42 
36.960	-1.3662	0.0996	1.7974	10.9253	4.4556	6.3477	-7.7399	36.6669	64.4238	43.8500	-15	-12	262	100816	0.42 
37.038	-1.3384	0.0703	1.8965	-6.8970	5.0659	16.7236	-6.5479	37.6776	67.6044	43.8300	-12	-16	265	100816	0.42 
37.116	-1.7822	0.1567	2.2832	6.1035	43.8843	1.9531	-6.1633	38.3588	69.6588	43.8300	-8	-15	269	100815	0.42 
37.194	-1.4253	-0.2461	1.5649	3.6011	-14.7705	-48.4619	-7.3169	37.6007	68.5547	43.8200	-10	-18	269	100815	0.42 
37.350	-1.4438	-0.0781	1.8872	1.5259	25.6958	-37.0483	-9.9152	38.5675	63.4021	43.8200	-18	-14	266	100815	0.43 
37.444	-1.2861	-0.0957	1.4473	-2.0752	-13.8550	-25.7568	-11.5906	36.9141	61.7102	43.8100	-25	-12	264	100814	0.43 
37.569	-1.4063	-0.1675	1.7471	-7.7515	5.8594	-23.4985	-13.5736	37.2491	60.4303	43.7900	-33	-8	265	100814	0.43 
37.616	-1.3076	-0.2642	1.8164	-9.0942	4.7607	-0.7324	-15.2161	36.8262	59.8975	43.8000	-34	-6	268	100813	0.43 
37.772	-1.4248	-0.1367	1.9473	14.9536	-21.7896	0.7935	-14.6118	36.4307	60.5566	43.8000	-34	-5	271	100813	0.43 
37.835	-1.6270	0.2349	1.7788	25.9399	-67.8711	47.6074	-10.6677	36.3318	64.1821	43.8000	-32	-8	267	100813	0.43 
37.960	-1.3652	-0.2065	1.6729	18.0054	38.1470	7.2021	-6.3721	35.5627	70.3839	43.7600	-27	-11	265	100813	0.43 
38.054	-1.3071	0.0327	1.3481	8.5449	-25.8179	14.9536	-4.6417	35.4584	71.8781	43.7600	-25	-14	261	100812	0.43 
38.225	-1.4346	0.0327	1.8096	10.2539	20.0195	13.3057	-2.7466	36.7383	74.9982	43.7800	-21	-18	260	100812	0.43 
38.257	-1.2661	0.1108	1.6470	16.5405	6.2256	-6.4697	-1.1096	37.2272	76.6901	43.7800	-15	-19	260	100812	0.43 
38.382	-1.3989	0.1816	1.9966	-2.5635	0.8545	6.7749	-0.4889	38.3313	78.2062	43.7700	-17	-24	262	100812	0.43 
38.460	-1.7715	-0.0430	2.0547	-14.7095	35.5835	-16.2964	-1.1151	39.3640	79.7552	43.7700	-10	-25	258	100811	0.43 
38.600	-1.3491	-0.0903	1.2031	-14.8315	-27.7100	-45.1660	-4.8724	37.8589	77.0801	43.7600	-13	-27	268	100811	0.43 
38.788	-1.4932	-0.1616	1.9248	-22.9492	12.6953	5.5542	-7.7399	39.6112	76.6351	43.7400	-18	-19	271	100811	0.43 
38.835	-1.3110	-0.1479	1.5005	-12.2070	-11.9019	-12.0239	-9.5142	38.4357	76.6901	43.7300	-15	-15	276	100811	0.43 
38.975	-1.3403	-0.1733	1.6475	-7.6294	0.1831	-26.4893	-12.2662	38.2324	74.1412	43.7200	-19	-16	278	100811	0.43 
39.069	-1.2148	-0.0845	1.8262	-4.1504	-1.2817	-0.5493	-13.3429	37.7765	73.6469	43.7200	-25	-12	280	100811	0.43 
39.194	-1.5894	-0.2163	1.9829	5.1270	3.8452	13.9771	-13.0792	38.3313	74.3829	43.7100	-23	-17	282	100810	0.43 
39.257	-1.4976	0.0195	1.6147	6.8359	-22.3389	72.7539	-8.2178	38.6774	79.9640	43.6900	-16	-15	281	100810	0.43 
39.444	-1.4458	-0.0488	1.7344	22.8882	28.0762	18.0664	-3.6859	39.5947	87.3083	43.6900	-10	-17	281	100810	0.43 
39.616	-1.3120	-0.0938	1.4541	7.8735	-19.8975	18.9209	-1.2634	39.1278	89.6429	43.6800	-2	-22	278	100810	0.43 
